FEHM V3.2.0lin 14-06-23 QA:NA   06/26/2014  09:41:54
*** DOE Code Comparison Project, Problem 5, Case A ***
Water Pressure (MPa)
Time (days) Node      88 Node      50
  0.00000000       3.60000000       3.60000000    
  1.00000000       3.38608717       3.51703930    
  37.0000000       3.32343369       3.46896487    
  80.2000000       3.28162395       3.45752702    
  132.040000       3.25309732       3.44824857    
  192.040000       3.22686221       3.43825302    
  252.040000       3.20283153       3.42820571    
  312.040000       3.17872182       3.41777459    
  372.040000       3.15722227       3.40848086    
  432.040000       3.13760384       3.39949158    
  492.040000       3.11917693       3.39044220    
  552.040000       3.10189251       3.38145243    
  612.040000       3.08568948       3.37263911    
  672.040000       3.07069774       3.36397469    
  732.040000       3.05676449       3.35541505    
  792.040000       3.04083001       3.34621802    
  852.040000       3.03127888       3.34008946    
  912.040000       3.02463356       3.33502125    
  972.040000       3.01619423       3.32928941    
  1032.04000       3.00667301       3.32451967    
  1092.04000       2.99177183       3.31913187    
  1104.04000       2.98856155       3.31785648    
  1118.44000       2.99593332       3.31861696    
  1135.72000       3.00710638       3.32028908    
  1156.45600       3.00890743       3.32015021    
  1181.33920       3.01039913       3.31981366    
  1211.19904       3.01183716       3.31924934    
  1247.03085       3.01286487       3.31838260    
  1290.02902       3.01404042       3.31719738    
  1341.62682       3.01567668       3.31564301    
  1401.62682       3.01161280       3.31264744    
  1461.62682       3.01087888       3.31188669    
  1521.62682       3.01176858       3.31211862    
  1581.62682       3.02142184       3.31722414    
  1641.62682       3.02738741       3.32042678    
  1701.62682       3.03076451       3.32210761    
  1761.62682       3.03315040       3.32324686    
  1821.62682       3.03478437       3.32401197    
  1881.62682       3.03602379       3.32453416    
  1941.62682       3.03693410       3.32479554    
  2001.62682       3.03811727       3.32532221    
  2061.62682       3.03775704       3.32576965    
  2121.62682       3.03958059       3.32714464    
  2181.62682       3.04451420       3.33002577    
  2241.62682       3.04601269       3.33123340    
  2301.62682       3.04663316       3.33196741    
  2361.62682       3.04651521       3.33231613    
  2421.62682       3.04586783       3.33239934    
  2481.62682       3.04935007       3.33456917    
  2541.62682       3.04992538       3.33532359    
  2601.62682       3.05105543       3.33638875    
  2661.62682       3.05267288       3.33772354    
  2721.62682       3.05336299       3.33852897    
  2781.62682       3.05434678       3.33950172    
  2841.62682       3.05463344       3.34007079    
  2901.62682       3.05466000       3.34049308    
  2961.62682       3.05479190       3.34096758    
  3021.62682       3.05480221       3.34137283    
  3081.62682       3.05580907       3.34230984    
  3141.62682       3.05620730       3.34291628    
  3201.62682       3.05629053       3.34334703    
  3261.62682       3.05613978       3.34364673    
  3321.62682       3.05581011       3.34384610    
  3381.62682       3.05534791       3.34397054    
  3441.62682       3.05478658       3.34403830    
  3501.62682       3.05415008       3.34406244    
  3561.62682       3.05345548       3.34405224    
  3621.62682       3.05271486       3.34401424    
  3650.00000       3.05235756       3.34399278    
