03  1   1   1
Liquid Pressure (MPa), (MPa)
Temperature (deg C), (deg C)
Saturation, (no dim)
0000000001   3.60000000    205.000000    1.00000000
0000000002   3.60000000    204.765702    1.00000000
0000000003   3.60000000    202.897553    1.00000000
0000000004   3.60000000    199.203882    1.00000000
0000000005   3.60000000    193.811371    1.00000000
0000000006   3.60000000    186.999417    1.00000000
0000000007   3.60000000    179.276602    1.00000000
0000000008   3.60000000    171.449734    1.00000000
0000000009   3.60000000    164.678376    1.00000000
0000000010   3.60000000    160.514190    1.00000000
0000000011   3.60000000    160.000000    1.00000000
0000000012   3.60000000    160.000000    1.00000000
0000000013   3.60000000    160.000000    1.00000000
0000000014   3.60000000    160.000000    1.00000000
0000000015   3.60000000    212.305908    1.00000000
0000000016   3.60000000    212.070036    1.00000000
0000000017   3.60000000    210.181584    1.00000000
0000000018   3.60000000    206.408769    1.00000000
0000000019   3.60000000    200.811855    1.00000000
0000000020   3.60000000    193.591385    1.00000000
0000000021   3.60000000    185.178102    1.00000000
0000000022   3.60000000    176.310136    1.00000000
0000000023   3.60000000    168.090567    1.00000000
0000000024   3.60000000    162.026565    1.00000000
0000000025   3.60000000    160.000000    1.00000000
0000000026   3.60000000    160.000000    1.00000000
0000000027   3.60000000    160.000000    1.00000000
0000000028   3.60000000    160.000000    1.00000000
0000000029   3.60000000    225.137939    1.00000000
0000000030   3.60000000    224.920699    1.00000000
0000000031   3.60000000    223.160480    1.00000000
0000000032   3.60000000    219.541728    1.00000000
0000000033   3.60000000    213.954672    1.00000000
0000000034   3.60000000    206.408769    1.00000000
0000000035   3.60000000    197.158013    1.00000000
0000000036   3.60000000    186.794830    1.00000000
0000000037   3.60000000    176.310136    1.00000000
0000000038   3.60000000    167.127985    1.00000000
0000000039   3.60000000    161.124244    1.00000000
0000000040   3.60000000    160.000000    1.00000000
0000000041   3.60000000    160.000000    1.00000000
0000000042   3.60000000    160.000000    1.00000000
0000000043   3.60000000    234.473877    1.00000000
0000000044   3.60000000    234.308604    1.00000000
0000000045   3.60000000    232.931006    1.00000000
0000000046   3.60000000    229.919731    1.00000000
0000000047   3.60000000    224.920699    1.00000000
0000000048   3.60000000    217.695246    1.00000000
0000000049   3.60000000    208.293263    1.00000000
0000000050   3.60000000    197.158013    1.00000000
0000000051   3.60000000    185.178102    1.00000000
0000000052   3.60000000    173.709431    1.00000000
0000000053   3.60000000    164.582831    1.00000000
0000000054   3.60000000    160.105684    1.00000000
0000000055   3.60000000    160.000000    1.00000000
0000000056   3.60000000    160.000000    1.00000000
0000000057   3.60000000    239.376221    1.00000000
0000000058   3.60000000    239.305366    1.00000000
0000000059   3.60000000    238.624295    1.00000000
0000000060   3.60000000    236.740203    1.00000000
0000000061   3.60000000    232.931006    1.00000000
0000000062   3.60000000    226.639166    1.00000000
0000000063   3.60000000    217.695246    1.00000000
0000000064   3.60000000    206.408769    1.00000000
0000000065   3.60000000    193.591385    1.00000000
0000000066   3.60000000    180.555728    1.00000000
0000000067   3.60000000    169.108437    1.00000000
0000000068   3.60000000    161.543345    1.00000000
0000000069   3.60000000    160.000000    1.00000000
0000000070   3.60000000    160.000000    1.00000000
0000000071   3.60000000    240.000000    1.00000000
0000000072   3.60000000    240.000000    1.00000000
0000000073   3.60000000    240.000000    1.00000000
0000000074   3.60000000    239.773413    1.00000000
0000000075   3.60000000    237.760841    1.00000000
0000000076   3.60000000    232.931006    1.00000000
0000000077   3.60000000    224.920699    1.00000000
0000000078   3.60000000    213.954672    1.00000000
0000000079   3.60000000    200.811855    1.00000000
0000000080   3.60000000    186.794830    1.00000000
0000000081   3.60000000    173.709431    1.00000000
0000000082   3.60000000    163.852102    1.00000000
0000000083   3.60000000    160.000000    1.00000000
0000000084   3.60000000    160.000000    1.00000000
0000000085   3.60000000    240.000000    1.00000000
0000000086   3.60000000    240.000000    1.00000000
0000000087   3.60000000    240.000000    1.00000000
0000000088   3.60000000    240.000000    1.00000000
0000000089   3.60000000    239.773413    1.00000000
0000000090   3.60000000    236.740203    1.00000000
0000000091   3.60000000    229.919731    1.00000000
0000000092   3.60000000    219.541728    1.00000000
0000000093   3.60000000    206.408769    1.00000000
0000000094   3.60000000    191.846855    1.00000000
0000000095   3.60000000    177.680850    1.00000000
0000000096   3.60000000    166.221794    1.00000000
0000000097   3.60000000    160.260037    1.00000000
0000000098   3.60000000    160.000000    1.00000000
0000000099   3.60000000    240.000000    1.00000000
0000000100   3.60000000    240.000000    1.00000000
0000000101   3.60000000    240.000000    1.00000000
0000000102   3.60000000    240.000000    1.00000000
0000000103   3.60000000    240.000000    1.00000000
0000000104   3.60000000    238.624295    1.00000000
0000000105   3.60000000    232.931006    1.00000000
0000000106   3.60000000    223.160480    1.00000000
0000000107   3.60000000    210.181584    1.00000000
0000000108   3.60000000    195.362550    1.00000000
0000000109   3.60000000    180.555728    1.00000000
0000000110   3.60000000    168.090567    1.00000000
0000000111   3.60000000    160.770112    1.00000000
0000000112   3.60000000    160.000000    1.00000000
0000000113   3.60000000    240.000000    1.00000000
0000000114   3.60000000    240.000000    1.00000000
0000000115   3.60000000    240.000000    1.00000000
0000000116   3.60000000    240.000000    1.00000000
0000000117   3.60000000    240.000000    1.00000000
0000000118   3.60000000    239.305366    1.00000000
0000000119   3.60000000    234.308604    1.00000000
0000000120   3.60000000    224.920699    1.00000000
0000000121   3.60000000    212.070036    1.00000000
0000000122   3.60000000    197.158013    1.00000000
0000000123   3.60000000    182.056813    1.00000000
0000000124   3.60000000    169.108437    1.00000000
0000000125   3.60000000    161.124244    1.00000000
0000000126   3.60000000    160.000000    1.00000000
0000000127   3.60000000    240.000000    1.00000000
0000000128   3.60000000    240.000000    1.00000000
0000000129   3.60000000    240.000000    1.00000000
0000000130   3.60000000    240.000000    1.00000000
0000000131   3.60000000    240.000000    1.00000000
0000000132   3.60000000    239.376221    1.00000000
0000000133   3.60000000    234.473877    1.00000000
0000000134   3.60000000    225.137939    1.00000000
0000000135   3.60000000    212.305908    1.00000000
0000000136   3.60000000    197.384033    1.00000000
0000000137   3.60000000    182.247314    1.00000000
0000000138   3.60000000    169.239502    1.00000000
0000000139   3.60000000    161.173096    1.00000000
0000000140   3.60000000    160.000000    1.00000000
