node, X coordinate (m), Y coordinate (m), Z coordinate (m), Liquid Pressure (MPa), Vapor Pressure (MPa), Temperature (deg C)
0000000001,   0.00000000 ,   0.00000000 ,   0.00000000 ,   6.00000000 ,   6.00000000 ,   80.0000000
0000000002,   1.00000000 ,   0.00000000 ,   0.00000000 ,   6.00000000 ,   6.00000000 ,   80.0000000
0000000003,   2.00000000 ,   0.00000000 ,   0.00000000 ,   6.00000000 ,   6.00000000 ,   80.0000000
0000000004,   3.00000000 ,   0.00000000 ,   0.00000000 ,   6.00000000 ,   6.00000000 ,   80.0000000
0000000005,   4.00000000 ,   0.00000000 ,   0.00000000 ,   6.00000000 ,   6.00000000 ,   80.0000000
0000000006,   5.00000000 ,   0.00000000 ,   0.00000000 ,   6.00000000 ,   6.00000000 ,   80.0000000
0000000007,   6.00000000 ,   0.00000000 ,   0.00000000 ,   6.00000000 ,   6.00000000 ,   80.0000000
0000000008,   7.00000000 ,   0.00000000 ,   0.00000000 ,   6.00000000 ,   6.00000000 ,   80.0000000
0000000009,   8.00000000 ,   0.00000000 ,   0.00000000 ,   6.00000000 ,   6.00000000 ,   80.0000000
0000000010,   9.00000000 ,   0.00000000 ,   0.00000000 ,   6.00000000 ,   6.00000000 ,   80.0000000
0000000011,   10.0000000 ,   0.00000000 ,   0.00000000 ,   6.00000000 ,   6.00000000 ,   80.0000000
0000000012,   0.00000000 ,   1.00000000 ,   0.00000000 ,   5.79926742 ,   5.79926742 ,   80.0000000
0000000013,   1.00000000 ,   1.00000000 ,   0.00000000 ,   5.79926792 ,   5.79926792 ,   80.0000000
0000000014,   2.00000000 ,   1.00000000 ,   0.00000000 ,   5.79926922 ,   5.79926922 ,   80.0000000
0000000015,   3.00000000 ,   1.00000000 ,   0.00000000 ,   5.79927080 ,   5.79927080 ,   80.0000000
0000000016,   4.00000000 ,   1.00000000 ,   0.00000000 ,   5.79927206 ,   5.79927206 ,   80.0000000
0000000017,   5.00000000 ,   1.00000000 ,   0.00000000 ,   5.79927254 ,   5.79927254 ,   80.0000000
0000000018,   6.00000000 ,   1.00000000 ,   0.00000000 ,   5.79927206 ,   5.79927206 ,   80.0000000
0000000019,   7.00000000 ,   1.00000000 ,   0.00000000 ,   5.79927080 ,   5.79927080 ,   80.0000000
0000000020,   8.00000000 ,   1.00000000 ,   0.00000000 ,   5.79926922 ,   5.79926922 ,   80.0000000
0000000021,   9.00000000 ,   1.00000000 ,   0.00000000 ,   5.79926792 ,   5.79926792 ,   80.0000000
0000000022,   10.0000000 ,   1.00000000 ,   0.00000000 ,   5.79926742 ,   5.79926742 ,   80.0000000
0000000023,   0.00000000 ,   2.00000000 ,   0.00000000 ,   5.59854946 ,   5.59854946 ,   80.0000000
0000000024,   1.00000000 ,   2.00000000 ,   0.00000000 ,   5.59855061 ,   5.59855061 ,   80.0000000
0000000025,   2.00000000 ,   2.00000000 ,   0.00000000 ,   5.59855358 ,   5.59855358 ,   80.0000000
0000000026,   3.00000000 ,   2.00000000 ,   0.00000000 ,   5.59855717 ,   5.59855717 ,   80.0000000
0000000027,   4.00000000 ,   2.00000000 ,   0.00000000 ,   5.59856002 ,   5.59856002 ,   80.0000000
0000000028,   5.00000000 ,   2.00000000 ,   0.00000000 ,   5.59856109 ,   5.59856109 ,   80.0000000
0000000029,   6.00000000 ,   2.00000000 ,   0.00000000 ,   5.59856002 ,   5.59856002 ,   80.0000000
0000000030,   7.00000000 ,   2.00000000 ,   0.00000000 ,   5.59855717 ,   5.59855717 ,   80.0000000
0000000031,   8.00000000 ,   2.00000000 ,   0.00000000 ,   5.59855358 ,   5.59855358 ,   80.0000000
0000000032,   9.00000000 ,   2.00000000 ,   0.00000000 ,   5.59855061 ,   5.59855061 ,   80.0000000
0000000033,   10.0000000 ,   2.00000000 ,   0.00000000 ,   5.59854946 ,   5.59854946 ,   80.0000000
0000000034,   0.00000000 ,   3.00000000 ,   0.00000000 ,   5.39835766 ,   5.39835766 ,   80.0000000
0000000035,   1.00000000 ,   3.00000000 ,   0.00000000 ,   5.39835980 ,   5.39835980 ,   80.0000000
0000000036,   2.00000000 ,   3.00000000 ,   0.00000000 ,   5.39836526 ,   5.39836526 ,   80.0000000
0000000037,   3.00000000 ,   3.00000000 ,   0.00000000 ,   5.39837179 ,   5.39837179 ,   80.0000000
0000000038,   4.00000000 ,   3.00000000 ,   0.00000000 ,   5.39837691 ,   5.39837691 ,   80.0000000
0000000039,   5.00000000 ,   3.00000000 ,   0.00000000 ,   5.39837883 ,   5.39837883 ,   80.0000000
0000000040,   6.00000000 ,   3.00000000 ,   0.00000000 ,   5.39837691 ,   5.39837691 ,   80.0000000
0000000041,   7.00000000 ,   3.00000000 ,   0.00000000 ,   5.39837179 ,   5.39837179 ,   80.0000000
0000000042,   8.00000000 ,   3.00000000 ,   0.00000000 ,   5.39836526 ,   5.39836526 ,   80.0000000
0000000043,   9.00000000 ,   3.00000000 ,   0.00000000 ,   5.39835980 ,   5.39835980 ,   80.0000000
0000000044,   10.0000000 ,   3.00000000 ,   0.00000000 ,   5.39835766 ,   5.39835766 ,   80.0000000
0000000045,   0.00000000 ,   4.00000000 ,   0.00000000 ,   5.19869128 ,   5.19869128 ,   80.0000000
0000000046,   1.00000000 ,   4.00000000 ,   0.00000000 ,   5.19869499 ,   5.19869499 ,   80.0000000
0000000047,   2.00000000 ,   4.00000000 ,   0.00000000 ,   5.19870434 ,   5.19870434 ,   80.0000000
0000000048,   3.00000000 ,   4.00000000 ,   0.00000000 ,   5.19871532 ,   5.19871532 ,   80.0000000
0000000049,   4.00000000 ,   4.00000000 ,   0.00000000 ,   5.19872380 ,   5.19872380 ,   80.0000000
0000000050,   5.00000000 ,   4.00000000 ,   0.00000000 ,   5.19872696 ,   5.19872696 ,   80.0000000
0000000051,   6.00000000 ,   4.00000000 ,   0.00000000 ,   5.19872380 ,   5.19872380 ,   80.0000000
0000000052,   7.00000000 ,   4.00000000 ,   0.00000000 ,   5.19871532 ,   5.19871532 ,   80.0000000
0000000053,   8.00000000 ,   4.00000000 ,   0.00000000 ,   5.19870434 ,   5.19870434 ,   80.0000000
0000000054,   9.00000000 ,   4.00000000 ,   0.00000000 ,   5.19869499 ,   5.19869499 ,   80.0000000
0000000055,   10.0000000 ,   4.00000000 ,   0.00000000 ,   5.19869128 ,   5.19869128 ,   80.0000000
0000000056,   0.00000000 ,   5.00000000 ,   0.00000000 ,   4.99937868 ,   4.99937868 ,   80.0000000
0000000057,   1.00000000 ,   5.00000000 ,   0.00000000 ,   4.99938495 ,   4.99938495 ,   80.0000000
0000000058,   2.00000000 ,   5.00000000 ,   0.00000000 ,   4.99940030 ,   4.99940030 ,   80.0000000
0000000059,   3.00000000 ,   5.00000000 ,   0.00000000 ,   4.99941778 ,   4.99941778 ,   80.0000000
0000000060,   4.00000000 ,   5.00000000 ,   0.00000000 ,   4.99943099 ,   4.99943099 ,   80.0000000
0000000061,   5.00000000 ,   5.00000000 ,   0.00000000 ,   4.99943584 ,   4.99943584 ,   80.0000000
0000000062,   6.00000000 ,   5.00000000 ,   0.00000000 ,   4.99943099 ,   4.99943099 ,   80.0000000
0000000063,   7.00000000 ,   5.00000000 ,   0.00000000 ,   4.99941778 ,   4.99941778 ,   80.0000000
0000000064,   8.00000000 ,   5.00000000 ,   0.00000000 ,   4.99940030 ,   4.99940030 ,   80.0000000
0000000065,   9.00000000 ,   5.00000000 ,   0.00000000 ,   4.99938495 ,   4.99938495 ,   80.0000000
0000000066,   10.0000000 ,   5.00000000 ,   0.00000000 ,   4.99937868 ,   4.99937868 ,   80.0000000
0000000067,   0.00000000 ,   6.00000000 ,   0.00000000 ,   4.80020128 ,   4.80020128 ,   80.0000000
0000000068,   1.00000000 ,   6.00000000 ,   0.00000000 ,   4.80021156 ,   4.80021156 ,   80.0000000
0000000069,   2.00000000 ,   6.00000000 ,   0.00000000 ,   4.80023553 ,   4.80023553 ,   80.0000000
0000000070,   3.00000000 ,   6.00000000 ,   0.00000000 ,   4.80026163 ,   4.80026163 ,   80.0000000
0000000071,   4.00000000 ,   6.00000000 ,   0.00000000 ,   4.80028068 ,   4.80028068 ,   80.0000000
0000000072,   5.00000000 ,   6.00000000 ,   0.00000000 ,   4.80028755 ,   4.80028755 ,   80.0000000
0000000073,   6.00000000 ,   6.00000000 ,   0.00000000 ,   4.80028068 ,   4.80028068 ,   80.0000000
0000000074,   7.00000000 ,   6.00000000 ,   0.00000000 ,   4.80026163 ,   4.80026163 ,   80.0000000
0000000075,   8.00000000 ,   6.00000000 ,   0.00000000 ,   4.80023553 ,   4.80023553 ,   80.0000000
0000000076,   9.00000000 ,   6.00000000 ,   0.00000000 ,   4.80021156 ,   4.80021156 ,   80.0000000
0000000077,   10.0000000 ,   6.00000000 ,   0.00000000 ,   4.80020128 ,   4.80020128 ,   80.0000000
0000000078,   0.00000000 ,   7.00000000 ,   0.00000000 ,   4.60093413 ,   4.60093413 ,   80.0000000
0000000079,   1.00000000 ,   7.00000000 ,   0.00000000 ,   4.60095054 ,   4.60095054 ,   80.0000000
0000000080,   2.00000000 ,   7.00000000 ,   0.00000000 ,   4.60098570 ,   4.60098570 ,   80.0000000
0000000081,   3.00000000 ,   7.00000000 ,   0.00000000 ,   4.60102143 ,   4.60102143 ,   80.0000000
0000000082,   4.00000000 ,   7.00000000 ,   0.00000000 ,   4.60104625 ,   4.60104625 ,   80.0000000
0000000083,   5.00000000 ,   7.00000000 ,   0.00000000 ,   4.60105498 ,   4.60105498 ,   80.0000000
0000000084,   6.00000000 ,   7.00000000 ,   0.00000000 ,   4.60104625 ,   4.60104625 ,   80.0000000
0000000085,   7.00000000 ,   7.00000000 ,   0.00000000 ,   4.60102143 ,   4.60102143 ,   80.0000000
0000000086,   8.00000000 ,   7.00000000 ,   0.00000000 ,   4.60098570 ,   4.60098570 ,   80.0000000
0000000087,   9.00000000 ,   7.00000000 ,   0.00000000 ,   4.60095054 ,   4.60095054 ,   80.0000000
0000000088,   10.0000000 ,   7.00000000 ,   0.00000000 ,   4.60093413 ,   4.60093413 ,   80.0000000
0000000089,   0.00000000 ,   8.00000000 ,   0.00000000 ,   4.40134642 ,   4.40134642 ,   80.0000000
0000000090,   1.00000000 ,   8.00000000 ,   0.00000000 ,   4.40137050 ,   4.40137050 ,   80.0000000
0000000091,   2.00000000 ,   8.00000000 ,   0.00000000 ,   4.40141536 ,   4.40141536 ,   80.0000000
0000000092,   3.00000000 ,   8.00000000 ,   0.00000000 ,   4.40145668 ,   4.40145668 ,   80.0000000
0000000093,   4.00000000 ,   8.00000000 ,   0.00000000 ,   4.40148358 ,   4.40148358 ,   80.0000000
0000000094,   5.00000000 ,   8.00000000 ,   0.00000000 ,   4.40149274 ,   4.40149274 ,   80.0000000
0000000095,   6.00000000 ,   8.00000000 ,   0.00000000 ,   4.40148358 ,   4.40148358 ,   80.0000000
0000000096,   7.00000000 ,   8.00000000 ,   0.00000000 ,   4.40145668 ,   4.40145668 ,   80.0000000
0000000097,   8.00000000 ,   8.00000000 ,   0.00000000 ,   4.40141536 ,   4.40141536 ,   80.0000000
0000000098,   9.00000000 ,   8.00000000 ,   0.00000000 ,   4.40137050 ,   4.40137050 ,   80.0000000
0000000099,   10.0000000 ,   8.00000000 ,   0.00000000 ,   4.40134642 ,   4.40134642 ,   80.0000000
0000000100,   0.00000000 ,   9.00000000 ,   0.00000000 ,   4.20116530 ,   4.20116530 ,   80.0000000
0000000101,   1.00000000 ,   9.00000000 ,   0.00000000 ,   4.20119161 ,   4.20119161 ,   80.0000000
0000000102,   2.00000000 ,   9.00000000 ,   0.00000000 ,   4.20123147 ,   4.20123147 ,   80.0000000
0000000103,   3.00000000 ,   9.00000000 ,   0.00000000 ,   4.20126382 ,   4.20126382 ,   80.0000000
0000000104,   4.00000000 ,   9.00000000 ,   0.00000000 ,   4.20128330 ,   4.20128330 ,   80.0000000
0000000105,   5.00000000 ,   9.00000000 ,   0.00000000 ,   4.20128970 ,   4.20128970 ,   80.0000000
0000000106,   6.00000000 ,   9.00000000 ,   0.00000000 ,   4.20128330 ,   4.20128330 ,   80.0000000
0000000107,   7.00000000 ,   9.00000000 ,   0.00000000 ,   4.20126382 ,   4.20126382 ,   80.0000000
0000000108,   8.00000000 ,   9.00000000 ,   0.00000000 ,   4.20123147 ,   4.20123147 ,   80.0000000
0000000109,   9.00000000 ,   9.00000000 ,   0.00000000 ,   4.20119161 ,   4.20119161 ,   80.0000000
0000000110,   10.0000000 ,   9.00000000 ,   0.00000000 ,   4.20116530 ,   4.20116530 ,   80.0000000
0000000111,   0.00000000 ,   10.0000000 ,   0.00000000 ,   4.00000000 ,   4.00000000 ,   80.0000000
0000000112,   1.00000000 ,   10.0000000 ,   0.00000000 ,   4.00000000 ,   4.00000000 ,   80.0000000
0000000113,   2.00000000 ,   10.0000000 ,   0.00000000 ,   4.00000000 ,   4.00000000 ,   80.0000000
0000000114,   3.00000000 ,   10.0000000 ,   0.00000000 ,   4.00000000 ,   4.00000000 ,   80.0000000
0000000115,   4.00000000 ,   10.0000000 ,   0.00000000 ,   4.00000000 ,   4.00000000 ,   80.0000000
0000000116,   5.00000000 ,   10.0000000 ,   0.00000000 ,   4.00000000 ,   4.00000000 ,   80.0000000
0000000117,   6.00000000 ,   10.0000000 ,   0.00000000 ,   4.00000000 ,   4.00000000 ,   80.0000000
0000000118,   7.00000000 ,   10.0000000 ,   0.00000000 ,   4.00000000 ,   4.00000000 ,   80.0000000
0000000119,   8.00000000 ,   10.0000000 ,   0.00000000 ,   4.00000000 ,   4.00000000 ,   80.0000000
0000000120,   9.00000000 ,   10.0000000 ,   0.00000000 ,   4.00000000 ,   4.00000000 ,   80.0000000
0000000121,   10.0000000 ,   10.0000000 ,   0.00000000 ,   4.00000000 ,   4.00000000 ,   80.0000000
0000000122,   0.00000000 ,   0.00000000 ,   1.00000000 ,   6.00000000 ,   6.00000000 ,   67.4786097
0000000123,   1.00000000 ,   0.00000000 ,   1.00000000 ,   6.00000000 ,   6.00000000 ,   67.4786199
0000000124,   2.00000000 ,   0.00000000 ,   1.00000000 ,   6.00000000 ,   6.00000000 ,   67.4786465
0000000125,   3.00000000 ,   0.00000000 ,   1.00000000 ,   6.00000000 ,   6.00000000 ,   67.4786789
0000000126,   4.00000000 ,   0.00000000 ,   1.00000000 ,   6.00000000 ,   6.00000000 ,   67.4787049
0000000127,   5.00000000 ,   0.00000000 ,   1.00000000 ,   6.00000000 ,   6.00000000 ,   67.4787147
0000000128,   6.00000000 ,   0.00000000 ,   1.00000000 ,   6.00000000 ,   6.00000000 ,   67.4787049
0000000129,   7.00000000 ,   0.00000000 ,   1.00000000 ,   6.00000000 ,   6.00000000 ,   67.4786789
0000000130,   8.00000000 ,   0.00000000 ,   1.00000000 ,   6.00000000 ,   6.00000000 ,   67.4786465
0000000131,   9.00000000 ,   0.00000000 ,   1.00000000 ,   6.00000000 ,   6.00000000 ,   67.4786199
0000000132,   10.0000000 ,   0.00000000 ,   1.00000000 ,   6.00000000 ,   6.00000000 ,   67.4786097
0000000133,   0.00000000 ,   1.00000000 ,   1.00000000 ,   5.78963514 ,   5.78963514 ,   70.3819735
0000000134,   1.00000000 ,   1.00000000 ,   1.00000000 ,   5.78963594 ,   5.78963594 ,   70.3819783
0000000135,   2.00000000 ,   1.00000000 ,   1.00000000 ,   5.78963798 ,   5.78963798 ,   70.3819913
0000000136,   3.00000000 ,   1.00000000 ,   1.00000000 ,   5.78964044 ,   5.78964044 ,   70.3820081
0000000137,   4.00000000 ,   1.00000000 ,   1.00000000 ,   5.78964239 ,   5.78964239 ,   70.3820219
0000000138,   5.00000000 ,   1.00000000 ,   1.00000000 ,   5.78964312 ,   5.78964312 ,   70.3820273
0000000139,   6.00000000 ,   1.00000000 ,   1.00000000 ,   5.78964239 ,   5.78964239 ,   70.3820219
0000000140,   7.00000000 ,   1.00000000 ,   1.00000000 ,   5.78964044 ,   5.78964044 ,   70.3820081
0000000141,   8.00000000 ,   1.00000000 ,   1.00000000 ,   5.78963798 ,   5.78963798 ,   70.3819913
0000000142,   9.00000000 ,   1.00000000 ,   1.00000000 ,   5.78963594 ,   5.78963594 ,   70.3819783
0000000143,   10.0000000 ,   1.00000000 ,   1.00000000 ,   5.78963514 ,   5.78963514 ,   70.3819736
0000000144,   0.00000000 ,   2.00000000 ,   1.00000000 ,   5.58635758 ,   5.58635758 ,   71.9269636
0000000145,   1.00000000 ,   2.00000000 ,   1.00000000 ,   5.58635949 ,   5.58635949 ,   71.9269589
0000000146,   2.00000000 ,   2.00000000 ,   1.00000000 ,   5.58636434 ,   5.58636434 ,   71.9269505
0000000147,   3.00000000 ,   2.00000000 ,   1.00000000 ,   5.58637013 ,   5.58637013 ,   71.9269447
0000000148,   4.00000000 ,   2.00000000 ,   1.00000000 ,   5.58637466 ,   5.58637466 ,   71.9269426
0000000149,   5.00000000 ,   2.00000000 ,   1.00000000 ,   5.58637635 ,   5.58637635 ,   71.9269423
0000000150,   6.00000000 ,   2.00000000 ,   1.00000000 ,   5.58637466 ,   5.58637466 ,   71.9269426
0000000151,   7.00000000 ,   2.00000000 ,   1.00000000 ,   5.58637013 ,   5.58637013 ,   71.9269447
0000000152,   8.00000000 ,   2.00000000 ,   1.00000000 ,   5.58636434 ,   5.58636434 ,   71.9269505
0000000153,   9.00000000 ,   2.00000000 ,   1.00000000 ,   5.58635949 ,   5.58635949 ,   71.9269589
0000000154,   10.0000000 ,   2.00000000 ,   1.00000000 ,   5.58635758 ,   5.58635758 ,   71.9269636
0000000155,   0.00000000 ,   3.00000000 ,   1.00000000 ,   5.38616226 ,   5.38616226 ,   72.7755678
0000000156,   1.00000000 ,   3.00000000 ,   1.00000000 ,   5.38616614 ,   5.38616614 ,   72.7755314
0000000157,   2.00000000 ,   3.00000000 ,   1.00000000 ,   5.38617585 ,   5.38617585 ,   72.7754592
0000000158,   3.00000000 ,   3.00000000 ,   1.00000000 ,   5.38618718 ,   5.38618718 ,   72.7753943
0000000159,   4.00000000 ,   3.00000000 ,   1.00000000 ,   5.38619589 ,   5.38619589 ,   72.7753547
0000000160,   5.00000000 ,   3.00000000 ,   1.00000000 ,   5.38619912 ,   5.38619912 ,   72.7753419
0000000161,   6.00000000 ,   3.00000000 ,   1.00000000 ,   5.38619589 ,   5.38619589 ,   72.7753547
0000000162,   7.00000000 ,   3.00000000 ,   1.00000000 ,   5.38618718 ,   5.38618718 ,   72.7753943
0000000163,   8.00000000 ,   3.00000000 ,   1.00000000 ,   5.38617585 ,   5.38617585 ,   72.7754592
0000000164,   9.00000000 ,   3.00000000 ,   1.00000000 ,   5.38616614 ,   5.38616614 ,   72.7755314
0000000165,   10.0000000 ,   3.00000000 ,   1.00000000 ,   5.38616226 ,   5.38616226 ,   72.7755678
0000000166,   0.00000000 ,   4.00000000 ,   1.00000000 ,   5.18733962 ,   5.18733962 ,   73.2499497
0000000167,   1.00000000 ,   4.00000000 ,   1.00000000 ,   5.18734743 ,   5.18734743 ,   73.2497766
0000000168,   2.00000000 ,   4.00000000 ,   1.00000000 ,   5.18736632 ,   5.18736632 ,   73.2494625
0000000169,   3.00000000 ,   4.00000000 ,   1.00000000 ,   5.18738756 ,   5.18738756 ,   73.2491979
0000000170,   4.00000000 ,   4.00000000 ,   1.00000000 ,   5.18740343 ,   5.18740343 ,   73.2490431
0000000171,   5.00000000 ,   4.00000000 ,   1.00000000 ,   5.18740922 ,   5.18740922 ,   73.2489941
0000000172,   6.00000000 ,   4.00000000 ,   1.00000000 ,   5.18740343 ,   5.18740343 ,   73.2490431
0000000173,   7.00000000 ,   4.00000000 ,   1.00000000 ,   5.18738756 ,   5.18738756 ,   73.2491979
0000000174,   8.00000000 ,   4.00000000 ,   1.00000000 ,   5.18736632 ,   5.18736632 ,   73.2494625
0000000175,   9.00000000 ,   4.00000000 ,   1.00000000 ,   5.18734743 ,   5.18734743 ,   73.2497766
0000000176,   10.0000000 ,   4.00000000 ,   1.00000000 ,   5.18733962 ,   5.18733962 ,   73.2499497
0000000177,   0.00000000 ,   5.00000000 ,   1.00000000 ,   4.98909541 ,   4.98909541 ,   73.5191408
0000000178,   1.00000000 ,   5.00000000 ,   1.00000000 ,   4.98911168 ,   4.98911168 ,   73.5183196
0000000179,   2.00000000 ,   5.00000000 ,   1.00000000 ,   4.98914857 ,   4.98914857 ,   73.5170327
0000000180,   3.00000000 ,   5.00000000 ,   1.00000000 ,   4.98918768 ,   4.98918768 ,   73.5160629
0000000181,   4.00000000 ,   5.00000000 ,   1.00000000 ,   4.98921561 ,   4.98921561 ,   73.5155411
0000000182,   5.00000000 ,   5.00000000 ,   1.00000000 ,   4.98922558 ,   4.98922558 ,   73.5153834
0000000183,   6.00000000 ,   5.00000000 ,   1.00000000 ,   4.98921561 ,   4.98921561 ,   73.5155411
0000000184,   7.00000000 ,   5.00000000 ,   1.00000000 ,   4.98918768 ,   4.98918768 ,   73.5160629
0000000185,   8.00000000 ,   5.00000000 ,   1.00000000 ,   4.98914857 ,   4.98914857 ,   73.5170327
0000000186,   9.00000000 ,   5.00000000 ,   1.00000000 ,   4.98911168 ,   4.98911168 ,   73.5183196
0000000187,   10.0000000 ,   5.00000000 ,   1.00000000 ,   4.98909541 ,   4.98909541 ,   73.5191408
0000000188,   0.00000000 ,   6.00000000 ,   1.00000000 ,   4.79103373 ,   4.79103373 ,   73.6831309
0000000189,   1.00000000 ,   6.00000000 ,   1.00000000 ,   4.79106960 ,   4.79106960 ,   73.6790033
0000000190,   2.00000000 ,   6.00000000 ,   1.00000000 ,   4.79114226 ,   4.79114226 ,   73.6737290
0000000191,   3.00000000 ,   6.00000000 ,   1.00000000 ,   4.79121255 ,   4.79121255 ,   73.6702956
0000000192,   4.00000000 ,   6.00000000 ,   1.00000000 ,   4.79125957 ,   4.79125957 ,   73.6686398
0000000193,   5.00000000 ,   6.00000000 ,   1.00000000 ,   4.79127578 ,   4.79127578 ,   73.6681696
0000000194,   6.00000000 ,   6.00000000 ,   1.00000000 ,   4.79125957 ,   4.79125957 ,   73.6686398
0000000195,   7.00000000 ,   6.00000000 ,   1.00000000 ,   4.79121255 ,   4.79121255 ,   73.6702956
0000000196,   8.00000000 ,   6.00000000 ,   1.00000000 ,   4.79114226 ,   4.79114226 ,   73.6737290
0000000197,   9.00000000 ,   6.00000000 ,   1.00000000 ,   4.79106960 ,   4.79106960 ,   73.6790033
0000000198,   10.0000000 ,   6.00000000 ,   1.00000000 ,   4.79103373 ,   4.79103373 ,   73.6831309
0000000199,   0.00000000 ,   7.00000000 ,   1.00000000 ,   4.59294512 ,   4.59294512 ,   73.8266609
0000000200,   1.00000000 ,   7.00000000 ,   1.00000000 ,   4.59302950 ,   4.59302950 ,   73.8043214
0000000201,   2.00000000 ,   7.00000000 ,   1.00000000 ,   4.59317112 ,   4.59317112 ,   73.7825883
0000000202,   3.00000000 ,   7.00000000 ,   1.00000000 ,   4.59329078 ,   4.59329078 ,   73.7708190
0000000203,   4.00000000 ,   7.00000000 ,   1.00000000 ,   4.59336367 ,   4.59336367 ,   73.7658476
0000000204,   5.00000000 ,   7.00000000 ,   1.00000000 ,   4.59338762 ,   4.59338762 ,   73.7645373
0000000205,   6.00000000 ,   7.00000000 ,   1.00000000 ,   4.59336367 ,   4.59336367 ,   73.7658476
0000000206,   7.00000000 ,   7.00000000 ,   1.00000000 ,   4.59329078 ,   4.59329078 ,   73.7708190
0000000207,   8.00000000 ,   7.00000000 ,   1.00000000 ,   4.59317112 ,   4.59317112 ,   73.7825883
0000000208,   9.00000000 ,   7.00000000 ,   1.00000000 ,   4.59302950 ,   4.59302950 ,   73.8043214
0000000209,   10.0000000 ,   7.00000000 ,   1.00000000 ,   4.59294512 ,   4.59294512 ,   73.8266609
0000000210,   0.00000000 ,   8.00000000 ,   1.00000000 ,   4.39473630 ,   4.39473630 ,   74.1165305
0000000211,   1.00000000 ,   8.00000000 ,   1.00000000 ,   4.39494173 ,   4.39494173 ,   73.9869401
0000000212,   2.00000000 ,   8.00000000 ,   1.00000000 ,   4.39519984 ,   4.39519984 ,   73.8994658
0000000213,   3.00000000 ,   8.00000000 ,   1.00000000 ,   4.39537988 ,   4.39537988 ,   73.8620222
0000000214,   4.00000000 ,   8.00000000 ,   1.00000000 ,   4.39547634 ,   4.39547634 ,   73.8485792
0000000215,   5.00000000 ,   8.00000000 ,   1.00000000 ,   4.39550602 ,   4.39550602 ,   73.8453416
0000000216,   6.00000000 ,   8.00000000 ,   1.00000000 ,   4.39547634 ,   4.39547634 ,   73.8485792
0000000217,   7.00000000 ,   8.00000000 ,   1.00000000 ,   4.39537988 ,   4.39537988 ,   73.8620222
0000000218,   8.00000000 ,   8.00000000 ,   1.00000000 ,   4.39519984 ,   4.39519984 ,   73.8994658
0000000219,   9.00000000 ,   8.00000000 ,   1.00000000 ,   4.39494173 ,   4.39494173 ,   73.9869401
0000000220,   10.0000000 ,   8.00000000 ,   1.00000000 ,   4.39473630 ,   4.39473630 ,   74.1165305
0000000221,   0.00000000 ,   9.00000000 ,   1.00000000 ,   4.19656637 ,   4.19656637 ,   75.2076458
0000000222,   1.00000000 ,   9.00000000 ,   1.00000000 ,   4.19700222 ,   4.19700222 ,   74.4054550
0000000223,   2.00000000 ,   9.00000000 ,   1.00000000 ,   4.19736387 ,   4.19736387 ,   74.0798032
0000000224,   3.00000000 ,   9.00000000 ,   1.00000000 ,   4.19755802 ,   4.19755802 ,   73.9771353
0000000225,   4.00000000 ,   9.00000000 ,   1.00000000 ,   4.19764586 ,   4.19764586 ,   73.9468637
0000000226,   5.00000000 ,   9.00000000 ,   1.00000000 ,   4.19767071 ,   4.19767071 ,   73.9402961
0000000227,   6.00000000 ,   9.00000000 ,   1.00000000 ,   4.19764586 ,   4.19764586 ,   73.9468637
0000000228,   7.00000000 ,   9.00000000 ,   1.00000000 ,   4.19755802 ,   4.19755802 ,   73.9771353
0000000229,   8.00000000 ,   9.00000000 ,   1.00000000 ,   4.19736387 ,   4.19736387 ,   74.0798032
0000000230,   9.00000000 ,   9.00000000 ,   1.00000000 ,   4.19700222 ,   4.19700222 ,   74.4054550
0000000231,   10.0000000 ,   9.00000000 ,   1.00000000 ,   4.19656637 ,   4.19656637 ,   75.2076458
0000000232,   0.00000000 ,   10.0000000 ,   1.00000000 ,   4.00000000 ,   4.00000000 ,   80.4733522
0000000233,   1.00000000 ,   10.0000000 ,   1.00000000 ,   4.00000000 ,   4.00000000 ,   75.2146547
0000000234,   2.00000000 ,   10.0000000 ,   1.00000000 ,   4.00000000 ,   4.00000000 ,   74.2793886
0000000235,   3.00000000 ,   10.0000000 ,   1.00000000 ,   4.00000000 ,   4.00000000 ,   74.0837205
0000000236,   4.00000000 ,   10.0000000 ,   1.00000000 ,   4.00000000 ,   4.00000000 ,   74.0372673
0000000237,   5.00000000 ,   10.0000000 ,   1.00000000 ,   4.00000000 ,   4.00000000 ,   74.0281200
0000000238,   6.00000000 ,   10.0000000 ,   1.00000000 ,   4.00000000 ,   4.00000000 ,   74.0372673
0000000239,   7.00000000 ,   10.0000000 ,   1.00000000 ,   4.00000000 ,   4.00000000 ,   74.0837205
0000000240,   8.00000000 ,   10.0000000 ,   1.00000000 ,   4.00000000 ,   4.00000000 ,   74.2793886
0000000241,   9.00000000 ,   10.0000000 ,   1.00000000 ,   4.00000000 ,   4.00000000 ,   75.2146547
0000000242,   10.0000000 ,   10.0000000 ,   1.00000000 ,   4.00000000 ,   4.00000000 ,   80.4733522
0000000243,   0.00000000 ,   0.00000000 ,   2.00000000 ,   6.00000000 ,   6.00000000 ,   63.3228253
0000000244,   1.00000000 ,   0.00000000 ,   2.00000000 ,   6.00000000 ,   6.00000000 ,   63.3228320
0000000245,   2.00000000 ,   0.00000000 ,   2.00000000 ,   6.00000000 ,   6.00000000 ,   63.3228495
0000000246,   3.00000000 ,   0.00000000 ,   2.00000000 ,   6.00000000 ,   6.00000000 ,   63.3228712
0000000247,   4.00000000 ,   0.00000000 ,   2.00000000 ,   6.00000000 ,   6.00000000 ,   63.3228888
0000000248,   5.00000000 ,   0.00000000 ,   2.00000000 ,   6.00000000 ,   6.00000000 ,   63.3228954
0000000249,   6.00000000 ,   0.00000000 ,   2.00000000 ,   6.00000000 ,   6.00000000 ,   63.3228888
0000000250,   7.00000000 ,   0.00000000 ,   2.00000000 ,   6.00000000 ,   6.00000000 ,   63.3228712
0000000251,   8.00000000 ,   0.00000000 ,   2.00000000 ,   6.00000000 ,   6.00000000 ,   63.3228495
0000000252,   9.00000000 ,   0.00000000 ,   2.00000000 ,   6.00000000 ,   6.00000000 ,   63.3228320
0000000253,   10.0000000 ,   0.00000000 ,   2.00000000 ,   6.00000000 ,   6.00000000 ,   63.3228253
0000000254,   0.00000000 ,   1.00000000 ,   2.00000000 ,   5.78923277 ,   5.78923277 ,   65.1676431
0000000255,   1.00000000 ,   1.00000000 ,   2.00000000 ,   5.78923368 ,   5.78923368 ,   65.1676460
0000000256,   2.00000000 ,   1.00000000 ,   2.00000000 ,   5.78923604 ,   5.78923604 ,   65.1676545
0000000257,   3.00000000 ,   1.00000000 ,   2.00000000 ,   5.78923888 ,   5.78923888 ,   65.1676661
0000000258,   4.00000000 ,   1.00000000 ,   2.00000000 ,   5.78924113 ,   5.78924113 ,   65.1676762
0000000259,   5.00000000 ,   1.00000000 ,   2.00000000 ,   5.78924198 ,   5.78924198 ,   65.1676802
0000000260,   6.00000000 ,   1.00000000 ,   2.00000000 ,   5.78924113 ,   5.78924113 ,   65.1676762
0000000261,   7.00000000 ,   1.00000000 ,   2.00000000 ,   5.78923888 ,   5.78923888 ,   65.1676661
0000000262,   8.00000000 ,   1.00000000 ,   2.00000000 ,   5.78923604 ,   5.78923604 ,   65.1676545
0000000263,   9.00000000 ,   1.00000000 ,   2.00000000 ,   5.78923368 ,   5.78923368 ,   65.1676460
0000000264,   10.0000000 ,   1.00000000 ,   2.00000000 ,   5.78923277 ,   5.78923277 ,   65.1676431
0000000265,   0.00000000 ,   2.00000000 ,   2.00000000 ,   5.58376465 ,   5.58376465 ,   66.4867062
0000000266,   1.00000000 ,   2.00000000 ,   2.00000000 ,   5.58376686 ,   5.58376686 ,   66.4866977
0000000267,   2.00000000 ,   2.00000000 ,   2.00000000 ,   5.58377250 ,   5.58377250 ,   66.4866807
0000000268,   3.00000000 ,   2.00000000 ,   2.00000000 ,   5.58377924 ,   5.58377924 ,   66.4866664
0000000269,   4.00000000 ,   2.00000000 ,   2.00000000 ,   5.58378452 ,   5.58378452 ,   66.4866587
0000000270,   5.00000000 ,   2.00000000 ,   2.00000000 ,   5.58378650 ,   5.58378650 ,   66.4866565
0000000271,   6.00000000 ,   2.00000000 ,   2.00000000 ,   5.58378452 ,   5.58378452 ,   66.4866587
0000000272,   7.00000000 ,   2.00000000 ,   2.00000000 ,   5.58377924 ,   5.58377924 ,   66.4866664
0000000273,   8.00000000 ,   2.00000000 ,   2.00000000 ,   5.58377250 ,   5.58377250 ,   66.4866807
0000000274,   9.00000000 ,   2.00000000 ,   2.00000000 ,   5.58376686 ,   5.58376686 ,   66.4866977
0000000275,   10.0000000 ,   2.00000000 ,   2.00000000 ,   5.58376465 ,   5.58376465 ,   66.4867062
0000000276,   0.00000000 ,   3.00000000 ,   2.00000000 ,   5.38180725 ,   5.38180725 ,   67.3575674
0000000277,   1.00000000 ,   3.00000000 ,   2.00000000 ,   5.38181175 ,   5.38181175 ,   67.3575156
0000000278,   2.00000000 ,   3.00000000 ,   2.00000000 ,   5.38182306 ,   5.38182306 ,   67.3574099
0000000279,   3.00000000 ,   3.00000000 ,   2.00000000 ,   5.38183628 ,   5.38183628 ,   67.3573124
0000000280,   4.00000000 ,   3.00000000 ,   2.00000000 ,   5.38184647 ,   5.38184647 ,   67.3572517
0000000281,   5.00000000 ,   3.00000000 ,   2.00000000 ,   5.38185026 ,   5.38185026 ,   67.3572318
0000000282,   6.00000000 ,   3.00000000 ,   2.00000000 ,   5.38184647 ,   5.38184647 ,   67.3572517
0000000283,   7.00000000 ,   3.00000000 ,   2.00000000 ,   5.38183628 ,   5.38183628 ,   67.3573124
0000000284,   8.00000000 ,   3.00000000 ,   2.00000000 ,   5.38182306 ,   5.38182306 ,   67.3574099
0000000285,   9.00000000 ,   3.00000000 ,   2.00000000 ,   5.38181175 ,   5.38181175 ,   67.3575156
0000000286,   10.0000000 ,   3.00000000 ,   2.00000000 ,   5.38180725 ,   5.38180725 ,   67.3575674
0000000287,   0.00000000 ,   4.00000000 ,   2.00000000 ,   5.18200208 ,   5.18200208 ,   67.9059528
0000000288,   1.00000000 ,   4.00000000 ,   2.00000000 ,   5.18201108 ,   5.18201108 ,   67.9057195
0000000289,   2.00000000 ,   4.00000000 ,   2.00000000 ,   5.18203297 ,   5.18203297 ,   67.9052780
0000000290,   3.00000000 ,   4.00000000 ,   2.00000000 ,   5.18205773 ,   5.18205773 ,   67.9048936
0000000291,   4.00000000 ,   4.00000000 ,   2.00000000 ,   5.18207630 ,   5.18207630 ,   67.9046632
0000000292,   5.00000000 ,   4.00000000 ,   2.00000000 ,   5.18208310 ,   5.18208310 ,   67.9045893
0000000293,   6.00000000 ,   4.00000000 ,   2.00000000 ,   5.18207630 ,   5.18207630 ,   67.9046632
0000000294,   7.00000000 ,   4.00000000 ,   2.00000000 ,   5.18205773 ,   5.18205773 ,   67.9048936
0000000295,   8.00000000 ,   4.00000000 ,   2.00000000 ,   5.18203297 ,   5.18203297 ,   67.9052780
0000000296,   9.00000000 ,   4.00000000 ,   2.00000000 ,   5.18201108 ,   5.18201108 ,   67.9057195
0000000297,   10.0000000 ,   4.00000000 ,   2.00000000 ,   5.18200208 ,   5.18200208 ,   67.9059528
0000000298,   0.00000000 ,   5.00000000 ,   2.00000000 ,   4.98345541 ,   4.98345541 ,   68.2432214
0000000299,   1.00000000 ,   5.00000000 ,   2.00000000 ,   4.98347379 ,   4.98347379 ,   68.2421832
0000000300,   2.00000000 ,   5.00000000 ,   2.00000000 ,   4.98351606 ,   4.98351606 ,   68.2404502
0000000301,   3.00000000 ,   5.00000000 ,   2.00000000 ,   4.98356136 ,   4.98356136 ,   68.2390790
0000000302,   4.00000000 ,   5.00000000 ,   2.00000000 ,   4.98359397 ,   4.98359397 ,   68.2383138
0000000303,   5.00000000 ,   5.00000000 ,   2.00000000 ,   4.98360564 ,   4.98360564 ,   68.2380779
0000000304,   6.00000000 ,   5.00000000 ,   2.00000000 ,   4.98359397 ,   4.98359397 ,   68.2383138
0000000305,   7.00000000 ,   5.00000000 ,   2.00000000 ,   4.98356136 ,   4.98356136 ,   68.2390790
0000000306,   8.00000000 ,   5.00000000 ,   2.00000000 ,   4.98351606 ,   4.98351606 ,   68.2404502
0000000307,   9.00000000 ,   5.00000000 ,   2.00000000 ,   4.98347379 ,   4.98347379 ,   68.2421832
0000000308,   10.0000000 ,   5.00000000 ,   2.00000000 ,   4.98345541 ,   4.98345541 ,   68.2432214
0000000309,   0.00000000 ,   6.00000000 ,   2.00000000 ,   4.78561874 ,   4.78561874 ,   68.4613603
0000000310,   1.00000000 ,   6.00000000 ,   2.00000000 ,   4.78565794 ,   4.78565794 ,   68.4565520
0000000311,   2.00000000 ,   6.00000000 ,   2.00000000 ,   4.78573947 ,   4.78573947 ,   68.4498446
0000000312,   3.00000000 ,   6.00000000 ,   2.00000000 ,   4.78581990 ,   4.78581990 ,   68.4451754
0000000313,   4.00000000 ,   6.00000000 ,   2.00000000 ,   4.78587443 ,   4.78587443 ,   68.4428037
0000000314,   5.00000000 ,   6.00000000 ,   2.00000000 ,   4.78589335 ,   4.78589335 ,   68.4421098
0000000315,   6.00000000 ,   6.00000000 ,   2.00000000 ,   4.78587443 ,   4.78587443 ,   68.4428037
0000000316,   7.00000000 ,   6.00000000 ,   2.00000000 ,   4.78581990 ,   4.78581990 ,   68.4451754
0000000317,   8.00000000 ,   6.00000000 ,   2.00000000 ,   4.78573947 ,   4.78573947 ,   68.4498446
0000000318,   9.00000000 ,   6.00000000 ,   2.00000000 ,   4.78565794 ,   4.78565794 ,   68.4565520
0000000319,   10.0000000 ,   6.00000000 ,   2.00000000 ,   4.78561874 ,   4.78561874 ,   68.4613603
0000000320,   0.00000000 ,   7.00000000 ,   2.00000000 ,   4.58818310 ,   4.58818310 ,   68.6582410
0000000321,   1.00000000 ,   7.00000000 ,   2.00000000 ,   4.58827082 ,   4.58827082 ,   68.6346894
0000000322,   2.00000000 ,   7.00000000 ,   2.00000000 ,   4.58842508 ,   4.58842508 ,   68.6090688
0000000323,   3.00000000 ,   7.00000000 ,   2.00000000 ,   4.58855973 ,   4.58855973 ,   68.5939478
0000000324,   4.00000000 ,   7.00000000 ,   2.00000000 ,   4.58864356 ,   4.58864356 ,   68.5871154
0000000325,   5.00000000 ,   7.00000000 ,   2.00000000 ,   4.58867140 ,   4.58867140 ,   68.5852414
0000000326,   6.00000000 ,   7.00000000 ,   2.00000000 ,   4.58864356 ,   4.58864356 ,   68.5871154
0000000327,   7.00000000 ,   7.00000000 ,   2.00000000 ,   4.58855973 ,   4.58855973 ,   68.5939478
0000000328,   8.00000000 ,   7.00000000 ,   2.00000000 ,   4.58842508 ,   4.58842508 ,   68.6090688
0000000329,   9.00000000 ,   7.00000000 ,   2.00000000 ,   4.58827082 ,   4.58827082 ,   68.6346894
0000000330,   10.0000000 ,   7.00000000 ,   2.00000000 ,   4.58818310 ,   4.58818310 ,   68.6582410
0000000331,   0.00000000 ,   8.00000000 ,   2.00000000 ,   4.39104124 ,   4.39104124 ,   69.0238191
0000000332,   1.00000000 ,   8.00000000 ,   2.00000000 ,   4.39124104 ,   4.39124104 ,   68.9013416
0000000333,   2.00000000 ,   8.00000000 ,   2.00000000 ,   4.39151092 ,   4.39151092 ,   68.8067446
0000000334,   3.00000000 ,   8.00000000 ,   2.00000000 ,   4.39170893 ,   4.39170893 ,   68.7616008
0000000335,   4.00000000 ,   8.00000000 ,   2.00000000 ,   4.39181868 ,   4.39181868 ,   68.7439159
0000000336,   5.00000000 ,   8.00000000 ,   2.00000000 ,   4.39185304 ,   4.39185304 ,   68.7394250
0000000337,   6.00000000 ,   8.00000000 ,   2.00000000 ,   4.39181868 ,   4.39181868 ,   68.7439159
0000000338,   7.00000000 ,   8.00000000 ,   2.00000000 ,   4.39170893 ,   4.39170893 ,   68.7616008
0000000339,   8.00000000 ,   8.00000000 ,   2.00000000 ,   4.39151092 ,   4.39151092 ,   68.8067446
0000000340,   9.00000000 ,   8.00000000 ,   2.00000000 ,   4.39124104 ,   4.39124104 ,   68.9013416
0000000341,   10.0000000 ,   8.00000000 ,   2.00000000 ,   4.39104124 ,   4.39104124 ,   69.0238191
0000000342,   0.00000000 ,   9.00000000 ,   2.00000000 ,   4.19444442 ,   4.19444442 ,   70.1582058
0000000343,   1.00000000 ,   9.00000000 ,   2.00000000 ,   4.19483656 ,   4.19483656 ,   69.4833019
0000000344,   2.00000000 ,   9.00000000 ,   2.00000000 ,   4.19519562 ,   4.19519562 ,   69.1632848
0000000345,   3.00000000 ,   9.00000000 ,   2.00000000 ,   4.19540310 ,   4.19540310 ,   69.0474896
0000000346,   4.00000000 ,   9.00000000 ,   2.00000000 ,   4.19550191 ,   4.19550191 ,   69.0091847
0000000347,   5.00000000 ,   9.00000000 ,   2.00000000 ,   4.19553061 ,   4.19553061 ,   69.0002563
0000000348,   6.00000000 ,   9.00000000 ,   2.00000000 ,   4.19550191 ,   4.19550191 ,   69.0091847
0000000349,   7.00000000 ,   9.00000000 ,   2.00000000 ,   4.19540310 ,   4.19540310 ,   69.0474896
0000000350,   8.00000000 ,   9.00000000 ,   2.00000000 ,   4.19519562 ,   4.19519562 ,   69.1632848
0000000351,   9.00000000 ,   9.00000000 ,   2.00000000 ,   4.19483656 ,   4.19483656 ,   69.4833019
0000000352,   10.0000000 ,   9.00000000 ,   2.00000000 ,   4.19444442 ,   4.19444442 ,   70.1582058
0000000353,   0.00000000 ,   10.0000000 ,   2.00000000 ,   4.00000000 ,   4.00000000 ,   74.4171765
0000000354,   1.00000000 ,   10.0000000 ,   2.00000000 ,   4.00000000 ,   4.00000000 ,   70.5023288
0000000355,   2.00000000 ,   10.0000000 ,   2.00000000 ,   4.00000000 ,   4.00000000 ,   69.6719668
0000000356,   3.00000000 ,   10.0000000 ,   2.00000000 ,   4.00000000 ,   4.00000000 ,   69.4634836
0000000357,   4.00000000 ,   10.0000000 ,   2.00000000 ,   4.00000000 ,   4.00000000 ,   69.4055231
0000000358,   5.00000000 ,   10.0000000 ,   2.00000000 ,   4.00000000 ,   4.00000000 ,   69.3929393
0000000359,   6.00000000 ,   10.0000000 ,   2.00000000 ,   4.00000000 ,   4.00000000 ,   69.4055231
0000000360,   7.00000000 ,   10.0000000 ,   2.00000000 ,   4.00000000 ,   4.00000000 ,   69.4634836
0000000361,   8.00000000 ,   10.0000000 ,   2.00000000 ,   4.00000000 ,   4.00000000 ,   69.6719668
0000000362,   9.00000000 ,   10.0000000 ,   2.00000000 ,   4.00000000 ,   4.00000000 ,   70.5023288
0000000363,   10.0000000 ,   10.0000000 ,   2.00000000 ,   4.00000000 ,   4.00000000 ,   74.4171765
0000000364,   0.00000000 ,   0.00000000 ,   3.00000000 ,   6.00000000 ,   6.00000000 ,   61.6447384
0000000365,   1.00000000 ,   0.00000000 ,   3.00000000 ,   6.00000000 ,   6.00000000 ,   61.6447407
0000000366,   2.00000000 ,   0.00000000 ,   3.00000000 ,   6.00000000 ,   6.00000000 ,   61.6447469
0000000367,   3.00000000 ,   0.00000000 ,   3.00000000 ,   6.00000000 ,   6.00000000 ,   61.6447549
0000000368,   4.00000000 ,   0.00000000 ,   3.00000000 ,   6.00000000 ,   6.00000000 ,   61.6447616
0000000369,   5.00000000 ,   0.00000000 ,   3.00000000 ,   6.00000000 ,   6.00000000 ,   61.6447643
0000000370,   6.00000000 ,   0.00000000 ,   3.00000000 ,   6.00000000 ,   6.00000000 ,   61.6447616
0000000371,   7.00000000 ,   0.00000000 ,   3.00000000 ,   6.00000000 ,   6.00000000 ,   61.6447549
0000000372,   8.00000000 ,   0.00000000 ,   3.00000000 ,   6.00000000 ,   6.00000000 ,   61.6447469
0000000373,   9.00000000 ,   0.00000000 ,   3.00000000 ,   6.00000000 ,   6.00000000 ,   61.6447407
0000000374,   10.0000000 ,   0.00000000 ,   3.00000000 ,   6.00000000 ,   6.00000000 ,   61.6447384
0000000375,   0.00000000 ,   1.00000000 ,   3.00000000 ,   5.78964594 ,   5.78964594 ,   62.5931608
0000000376,   1.00000000 ,   1.00000000 ,   3.00000000 ,   5.78964673 ,   5.78964673 ,   62.5931601
0000000377,   2.00000000 ,   1.00000000 ,   3.00000000 ,   5.78964877 ,   5.78964877 ,   62.5931590
0000000378,   3.00000000 ,   1.00000000 ,   3.00000000 ,   5.78965124 ,   5.78965124 ,   62.5931591
0000000379,   4.00000000 ,   1.00000000 ,   3.00000000 ,   5.78965320 ,   5.78965320 ,   62.5931601
0000000380,   5.00000000 ,   1.00000000 ,   3.00000000 ,   5.78965394 ,   5.78965394 ,   62.5931607
0000000381,   6.00000000 ,   1.00000000 ,   3.00000000 ,   5.78965320 ,   5.78965320 ,   62.5931601
0000000382,   7.00000000 ,   1.00000000 ,   3.00000000 ,   5.78965124 ,   5.78965124 ,   62.5931591
0000000383,   8.00000000 ,   1.00000000 ,   3.00000000 ,   5.78964877 ,   5.78964877 ,   62.5931590
0000000384,   9.00000000 ,   1.00000000 ,   3.00000000 ,   5.78964673 ,   5.78964673 ,   62.5931601
0000000385,   10.0000000 ,   1.00000000 ,   3.00000000 ,   5.78964594 ,   5.78964594 ,   62.5931608
0000000386,   0.00000000 ,   2.00000000 ,   3.00000000 ,   5.58310870 ,   5.58310870 ,   63.3735752
0000000387,   1.00000000 ,   2.00000000 ,   3.00000000 ,   5.58311058 ,   5.58311058 ,   63.3735631
0000000388,   2.00000000 ,   2.00000000 ,   3.00000000 ,   5.58311539 ,   5.58311539 ,   63.3735363
0000000389,   3.00000000 ,   2.00000000 ,   3.00000000 ,   5.58312118 ,   5.58312118 ,   63.3735096
0000000390,   4.00000000 ,   2.00000000 ,   3.00000000 ,   5.58312574 ,   5.58312574 ,   63.3734921
0000000391,   5.00000000 ,   2.00000000 ,   3.00000000 ,   5.58312746 ,   5.58312746 ,   63.3734862
0000000392,   6.00000000 ,   2.00000000 ,   3.00000000 ,   5.58312574 ,   5.58312574 ,   63.3734921
0000000393,   7.00000000 ,   2.00000000 ,   3.00000000 ,   5.58312118 ,   5.58312118 ,   63.3735096
0000000394,   8.00000000 ,   2.00000000 ,   3.00000000 ,   5.58311539 ,   5.58311539 ,   63.3735363
0000000395,   9.00000000 ,   2.00000000 ,   3.00000000 ,   5.58311058 ,   5.58311058 ,   63.3735631
0000000396,   10.0000000 ,   2.00000000 ,   3.00000000 ,   5.58310870 ,   5.58310870 ,   63.3735752
0000000397,   0.00000000 ,   3.00000000 ,   3.00000000 ,   5.37971057 ,   5.37971057 ,   63.9501826
0000000398,   1.00000000 ,   3.00000000 ,   3.00000000 ,   5.37971427 ,   5.37971427 ,   63.9501289
0000000399,   2.00000000 ,   3.00000000 ,   3.00000000 ,   5.37972364 ,   5.37972364 ,   63.9500122
0000000400,   3.00000000 ,   3.00000000 ,   3.00000000 ,   5.37973473 ,   5.37973473 ,   63.9498978
0000000401,   4.00000000 ,   3.00000000 ,   3.00000000 ,   5.37974336 ,   5.37974336 ,   63.9498225
0000000402,   5.00000000 ,   3.00000000 ,   3.00000000 ,   5.37974658 ,   5.37974658 ,   63.9497971
0000000403,   6.00000000 ,   3.00000000 ,   3.00000000 ,   5.37974336 ,   5.37974336 ,   63.9498225
0000000404,   7.00000000 ,   3.00000000 ,   3.00000000 ,   5.37973473 ,   5.37973473 ,   63.9498978
0000000405,   8.00000000 ,   3.00000000 ,   3.00000000 ,   5.37972364 ,   5.37972364 ,   63.9500122
0000000406,   9.00000000 ,   3.00000000 ,   3.00000000 ,   5.37971427 ,   5.37971427 ,   63.9501289
0000000407,   10.0000000 ,   3.00000000 ,   3.00000000 ,   5.37971057 ,   5.37971057 ,   63.9501826
0000000408,   0.00000000 ,   4.00000000 ,   3.00000000 ,   5.17867081 ,   5.17867081 ,   64.3425925
0000000409,   1.00000000 ,   4.00000000 ,   3.00000000 ,   5.17867782 ,   5.17867782 ,   64.3423810
0000000410,   2.00000000 ,   4.00000000 ,   3.00000000 ,   5.17869523 ,   5.17869523 ,   64.3419501
0000000411,   3.00000000 ,   4.00000000 ,   3.00000000 ,   5.17871531 ,   5.17871531 ,   64.3415497
0000000412,   4.00000000 ,   4.00000000 ,   3.00000000 ,   5.17873060 ,   5.17873060 ,   64.3412969
0000000413,   5.00000000 ,   4.00000000 ,   3.00000000 ,   5.17873625 ,   5.17873625 ,   64.3412134
0000000414,   6.00000000 ,   4.00000000 ,   3.00000000 ,   5.17873060 ,   5.17873060 ,   64.3412969
0000000415,   7.00000000 ,   4.00000000 ,   3.00000000 ,   5.17871531 ,   5.17871531 ,   64.3415497
0000000416,   8.00000000 ,   4.00000000 ,   3.00000000 ,   5.17869523 ,   5.17869523 ,   64.3419501
0000000417,   9.00000000 ,   4.00000000 ,   3.00000000 ,   5.17867782 ,   5.17867782 ,   64.3423810
0000000418,   10.0000000 ,   4.00000000 ,   3.00000000 ,   5.17867081 ,   5.17867081 ,   64.3425925
0000000419,   0.00000000 ,   5.00000000 ,   3.00000000 ,   4.97931323 ,   4.97931323 ,   64.5966253
0000000420,   1.00000000 ,   5.00000000 ,   3.00000000 ,   4.97932657 ,   4.97932657 ,   64.5958018
0000000421,   2.00000000 ,   5.00000000 ,   3.00000000 ,   4.97935836 ,   4.97935836 ,   64.5942764
0000000422,   3.00000000 ,   5.00000000 ,   3.00000000 ,   4.97939358 ,   4.97939358 ,   64.5929666
0000000423,   4.00000000 ,   5.00000000 ,   3.00000000 ,   4.97941956 ,   4.97941956 ,   64.5921883
0000000424,   5.00000000 ,   5.00000000 ,   3.00000000 ,   4.97942899 ,   4.97942899 ,   64.5919395
0000000425,   6.00000000 ,   5.00000000 ,   3.00000000 ,   4.97941956 ,   4.97941956 ,   64.5921883
0000000426,   7.00000000 ,   5.00000000 ,   3.00000000 ,   4.97939358 ,   4.97939358 ,   64.5929666
0000000427,   8.00000000 ,   5.00000000 ,   3.00000000 ,   4.97935836 ,   4.97935836 ,   64.5942764
0000000428,   9.00000000 ,   5.00000000 ,   3.00000000 ,   4.97932657 ,   4.97932657 ,   64.5958018
0000000429,   10.0000000 ,   5.00000000 ,   3.00000000 ,   4.97931323 ,   4.97931323 ,   64.5966253
0000000430,   0.00000000 ,   6.00000000 ,   3.00000000 ,   4.78114506 ,   4.78114506 ,   64.7689890
0000000431,   1.00000000 ,   6.00000000 ,   3.00000000 ,   4.78117073 ,   4.78117073 ,   64.7657283
0000000432,   2.00000000 ,   6.00000000 ,   3.00000000 ,   4.78122785 ,   4.78122785 ,   64.7604504
0000000433,   3.00000000 ,   6.00000000 ,   3.00000000 ,   4.78128731 ,   4.78128731 ,   64.7563599
0000000434,   4.00000000 ,   6.00000000 ,   3.00000000 ,   4.78132917 ,   4.78132917 ,   64.7541090
0000000435,   5.00000000 ,   6.00000000 ,   3.00000000 ,   4.78134398 ,   4.78134398 ,   64.7534200
0000000436,   6.00000000 ,   6.00000000 ,   3.00000000 ,   4.78132917 ,   4.78132917 ,   64.7541090
0000000437,   7.00000000 ,   6.00000000 ,   3.00000000 ,   4.78128731 ,   4.78128731 ,   64.7563599
0000000438,   8.00000000 ,   6.00000000 ,   3.00000000 ,   4.78122785 ,   4.78122785 ,   64.7604504
0000000439,   9.00000000 ,   6.00000000 ,   3.00000000 ,   4.78117073 ,   4.78117073 ,   64.7657283
0000000440,   10.0000000 ,   6.00000000 ,   3.00000000 ,   4.78114506 ,   4.78114506 ,   64.7689890
0000000441,   0.00000000 ,   7.00000000 ,   3.00000000 ,   4.58387564 ,   4.58387564 ,   64.9371508
0000000442,   1.00000000 ,   7.00000000 ,   3.00000000 ,   4.58392546 ,   4.58392546 ,   64.9239674
0000000443,   2.00000000 ,   7.00000000 ,   3.00000000 ,   4.58402433 ,   4.58402433 ,   64.9062192
0000000444,   3.00000000 ,   7.00000000 ,   3.00000000 ,   4.58411823 ,   4.58411823 ,   64.8941261
0000000445,   4.00000000 ,   7.00000000 ,   3.00000000 ,   4.58418012 ,   4.58418012 ,   64.8880644
0000000446,   5.00000000 ,   7.00000000 ,   3.00000000 ,   4.58420128 ,   4.58420128 ,   64.8863022
0000000447,   6.00000000 ,   7.00000000 ,   3.00000000 ,   4.58418012 ,   4.58418012 ,   64.8880644
0000000448,   7.00000000 ,   7.00000000 ,   3.00000000 ,   4.58411823 ,   4.58411823 ,   64.8941261
0000000449,   8.00000000 ,   7.00000000 ,   3.00000000 ,   4.58402433 ,   4.58402433 ,   64.9062192
0000000450,   9.00000000 ,   7.00000000 ,   3.00000000 ,   4.58392546 ,   4.58392546 ,   64.9239674
0000000451,   10.0000000 ,   7.00000000 ,   3.00000000 ,   4.58387564 ,   4.58387564 ,   64.9371508
0000000452,   0.00000000 ,   8.00000000 ,   3.00000000 ,   4.38745636 ,   4.38745636 ,   65.2595426
0000000453,   1.00000000 ,   8.00000000 ,   3.00000000 ,   4.38755014 ,   4.38755014 ,   65.2057790
0000000454,   2.00000000 ,   8.00000000 ,   3.00000000 ,   4.38770531 ,   4.38770531 ,   65.1490785
0000000455,   3.00000000 ,   8.00000000 ,   3.00000000 ,   4.38783485 ,   4.38783485 ,   65.1160697
0000000456,   4.00000000 ,   8.00000000 ,   3.00000000 ,   4.38791297 ,   4.38791297 ,   65.1012258
0000000457,   5.00000000 ,   8.00000000 ,   3.00000000 ,   4.38793847 ,   4.38793847 ,   65.0971573
0000000458,   6.00000000 ,   8.00000000 ,   3.00000000 ,   4.38791297 ,   4.38791297 ,   65.1012258
0000000459,   7.00000000 ,   8.00000000 ,   3.00000000 ,   4.38783485 ,   4.38783485 ,   65.1160697
0000000460,   8.00000000 ,   8.00000000 ,   3.00000000 ,   4.38770531 ,   4.38770531 ,   65.1490785
0000000461,   9.00000000 ,   8.00000000 ,   3.00000000 ,   4.38755014 ,   4.38755014 ,   65.2057790
0000000462,   10.0000000 ,   8.00000000 ,   3.00000000 ,   4.38745636 ,   4.38745636 ,   65.2595426
0000000463,   0.00000000 ,   9.00000000 ,   3.00000000 ,   4.19228379 ,   4.19228379 ,   66.1880425
0000000464,   1.00000000 ,   9.00000000 ,   3.00000000 ,   4.19242761 ,   4.19242761 ,   65.9754405
0000000465,   2.00000000 ,   9.00000000 ,   3.00000000 ,   4.19260954 ,   4.19260954 ,   65.8113431
0000000466,   3.00000000 ,   9.00000000 ,   3.00000000 ,   4.19273730 ,   4.19273730 ,   65.7316882
0000000467,   4.00000000 ,   9.00000000 ,   3.00000000 ,   4.19280603 ,   4.19280603 ,   65.6997567
0000000468,   5.00000000 ,   9.00000000 ,   3.00000000 ,   4.19282721 ,   4.19282721 ,   65.6915092
0000000469,   6.00000000 ,   9.00000000 ,   3.00000000 ,   4.19280603 ,   4.19280603 ,   65.6997567
0000000470,   7.00000000 ,   9.00000000 ,   3.00000000 ,   4.19273730 ,   4.19273730 ,   65.7316882
0000000471,   8.00000000 ,   9.00000000 ,   3.00000000 ,   4.19260954 ,   4.19260954 ,   65.8113431
0000000472,   9.00000000 ,   9.00000000 ,   3.00000000 ,   4.19242761 ,   4.19242761 ,   65.9754405
0000000473,   10.0000000 ,   9.00000000 ,   3.00000000 ,   4.19228379 ,   4.19228379 ,   66.1880425
0000000474,   0.00000000 ,   10.0000000 ,   3.00000000 ,   4.00000000 ,   4.00000000 ,   69.2047022
0000000475,   1.00000000 ,   10.0000000 ,   3.00000000 ,   4.00000000 ,   4.00000000 ,   68.4806688
0000000476,   2.00000000 ,   10.0000000 ,   3.00000000 ,   4.00000000 ,   4.00000000 ,   68.0914320
0000000477,   3.00000000 ,   10.0000000 ,   3.00000000 ,   4.00000000 ,   4.00000000 ,   67.9312539
0000000478,   4.00000000 ,   10.0000000 ,   3.00000000 ,   4.00000000 ,   4.00000000 ,   67.8721932
0000000479,   5.00000000 ,   10.0000000 ,   3.00000000 ,   4.00000000 ,   4.00000000 ,   67.8575013
0000000480,   6.00000000 ,   10.0000000 ,   3.00000000 ,   4.00000000 ,   4.00000000 ,   67.8721932
0000000481,   7.00000000 ,   10.0000000 ,   3.00000000 ,   4.00000000 ,   4.00000000 ,   67.9312539
0000000482,   8.00000000 ,   10.0000000 ,   3.00000000 ,   4.00000000 ,   4.00000000 ,   68.0914320
0000000483,   9.00000000 ,   10.0000000 ,   3.00000000 ,   4.00000000 ,   4.00000000 ,   68.4806688
0000000484,   10.0000000 ,   10.0000000 ,   3.00000000 ,   4.00000000 ,   4.00000000 ,   69.2047022
0000000485,   0.00000000 ,   0.00000000 ,   4.00000000 ,   6.00000000 ,   6.00000000 ,   61.2163358
0000000486,   1.00000000 ,   0.00000000 ,   4.00000000 ,   6.00000000 ,   6.00000000 ,   61.2163345
0000000487,   2.00000000 ,   0.00000000 ,   4.00000000 ,   6.00000000 ,   6.00000000 ,   61.2163313
0000000488,   3.00000000 ,   0.00000000 ,   4.00000000 ,   6.00000000 ,   6.00000000 ,   61.2163281
0000000489,   4.00000000 ,   0.00000000 ,   4.00000000 ,   6.00000000 ,   6.00000000 ,   61.2163260
0000000490,   5.00000000 ,   0.00000000 ,   4.00000000 ,   6.00000000 ,   6.00000000 ,   61.2163253
0000000491,   6.00000000 ,   0.00000000 ,   4.00000000 ,   6.00000000 ,   6.00000000 ,   61.2163260
0000000492,   7.00000000 ,   0.00000000 ,   4.00000000 ,   6.00000000 ,   6.00000000 ,   61.2163281
0000000493,   8.00000000 ,   0.00000000 ,   4.00000000 ,   6.00000000 ,   6.00000000 ,   61.2163313
0000000494,   9.00000000 ,   0.00000000 ,   4.00000000 ,   6.00000000 ,   6.00000000 ,   61.2163345
0000000495,   10.0000000 ,   0.00000000 ,   4.00000000 ,   6.00000000 ,   6.00000000 ,   61.2163358
0000000496,   0.00000000 ,   1.00000000 ,   4.00000000 ,   6.11077739 ,   6.11077739 ,   61.4703410
0000000497,   1.00000000 ,   1.00000000 ,   4.00000000 ,   6.11077462 ,   6.11077462 ,   61.4703370
0000000498,   2.00000000 ,   1.00000000 ,   4.00000000 ,   6.11076788 ,   6.11076788 ,   61.4703275
0000000499,   3.00000000 ,   1.00000000 ,   4.00000000 ,   6.11076041 ,   6.11076041 ,   61.4703174
0000000500,   4.00000000 ,   1.00000000 ,   4.00000000 ,   6.11075496 ,   6.11075496 ,   61.4703102
0000000501,   5.00000000 ,   1.00000000 ,   4.00000000 ,   6.11075301 ,   6.11075301 ,   61.4703077
0000000502,   6.00000000 ,   1.00000000 ,   4.00000000 ,   6.11075496 ,   6.11075496 ,   61.4703102
0000000503,   7.00000000 ,   1.00000000 ,   4.00000000 ,   6.11076041 ,   6.11076041 ,   61.4703174
0000000504,   8.00000000 ,   1.00000000 ,   4.00000000 ,   6.11076788 ,   6.11076788 ,   61.4703275
0000000505,   9.00000000 ,   1.00000000 ,   4.00000000 ,   6.11077462 ,   6.11077462 ,   61.4703370
0000000506,   10.0000000 ,   1.00000000 ,   4.00000000 ,   6.11077739 ,   6.11077739 ,   61.4703410
0000000507,   0.00000000 ,   2.00000000 ,   4.00000000 ,   6.05043597 ,   6.05043597 ,   61.7929142
0000000508,   1.00000000 ,   2.00000000 ,   4.00000000 ,   6.05042598 ,   6.05042598 ,   61.7928985
0000000509,   2.00000000 ,   2.00000000 ,   4.00000000 ,   6.05040189 ,   6.05040189 ,   61.7928615
0000000510,   3.00000000 ,   2.00000000 ,   4.00000000 ,   6.05037546 ,   6.05037546 ,   61.7928221
0000000511,   4.00000000 ,   2.00000000 ,   4.00000000 ,   6.05035636 ,   6.05035636 ,   61.7927944
0000000512,   5.00000000 ,   2.00000000 ,   4.00000000 ,   6.05034954 ,   6.05034954 ,   61.7927846
0000000513,   6.00000000 ,   2.00000000 ,   4.00000000 ,   6.05035636 ,   6.05035636 ,   61.7927944
0000000514,   7.00000000 ,   2.00000000 ,   4.00000000 ,   6.05037546 ,   6.05037546 ,   61.7928221
0000000515,   8.00000000 ,   2.00000000 ,   4.00000000 ,   6.05040189 ,   6.05040189 ,   61.7928615
0000000516,   9.00000000 ,   2.00000000 ,   4.00000000 ,   6.05042598 ,   6.05042598 ,   61.7928985
0000000517,   10.0000000 ,   2.00000000 ,   4.00000000 ,   6.05043597 ,   6.05043597 ,   61.7929142
0000000518,   0.00000000 ,   3.00000000 ,   4.00000000 ,   5.94824026 ,   5.94824026 ,   62.0545783
0000000519,   1.00000000 ,   3.00000000 ,   4.00000000 ,   5.94820796 ,   5.94820796 ,   62.0545226
0000000520,   2.00000000 ,   3.00000000 ,   4.00000000 ,   5.94813152 ,   5.94813152 ,   62.0543957
0000000521,   3.00000000 ,   3.00000000 ,   4.00000000 ,   5.94804940 ,   5.94804940 ,   62.0542648
0000000522,   4.00000000 ,   3.00000000 ,   4.00000000 ,   5.94799111 ,   5.94799111 ,   62.0541748
0000000523,   5.00000000 ,   3.00000000 ,   4.00000000 ,   5.94797052 ,   5.94797052 ,   62.0541436
0000000524,   6.00000000 ,   3.00000000 ,   4.00000000 ,   5.94799111 ,   5.94799111 ,   62.0541748
0000000525,   7.00000000 ,   3.00000000 ,   4.00000000 ,   5.94804940 ,   5.94804940 ,   62.0542648
0000000526,   8.00000000 ,   3.00000000 ,   4.00000000 ,   5.94813152 ,   5.94813152 ,   62.0543957
0000000527,   9.00000000 ,   3.00000000 ,   4.00000000 ,   5.94820796 ,   5.94820796 ,   62.0545226
0000000528,   10.0000000 ,   3.00000000 ,   4.00000000 ,   5.94824026 ,   5.94824026 ,   62.0545783
0000000529,   0.00000000 ,   4.00000000 ,   4.00000000 ,   5.82413969 ,   5.82413969 ,   62.2314883
0000000530,   1.00000000 ,   4.00000000 ,   4.00000000 ,   5.82404128 ,   5.82404128 ,   62.2312987
0000000531,   2.00000000 ,   4.00000000 ,   4.00000000 ,   5.82381467 ,   5.82381467 ,   62.2308868
0000000532,   3.00000000 ,   4.00000000 ,   4.00000000 ,   5.82357845 ,   5.82357845 ,   62.2304810
0000000533,   4.00000000 ,   4.00000000 ,   4.00000000 ,   5.82341497 ,   5.82341497 ,   62.2302126
0000000534,   5.00000000 ,   4.00000000 ,   4.00000000 ,   5.82335806 ,   5.82335806 ,   62.2301215
0000000535,   6.00000000 ,   4.00000000 ,   4.00000000 ,   5.82341497 ,   5.82341497 ,   62.2302126
0000000536,   7.00000000 ,   4.00000000 ,   4.00000000 ,   5.82357845 ,   5.82357845 ,   62.2304810
0000000537,   8.00000000 ,   4.00000000 ,   4.00000000 ,   5.82381467 ,   5.82381467 ,   62.2308868
0000000538,   9.00000000 ,   4.00000000 ,   4.00000000 ,   5.82404128 ,   5.82404128 ,   62.2312987
0000000539,   10.0000000 ,   4.00000000 ,   4.00000000 ,   5.82413969 ,   5.82413969 ,   62.2314883
0000000540,   0.00000000 ,   5.00000000 ,   4.00000000 ,   5.68152866 ,   5.68152866 ,   62.3390160
0000000541,   1.00000000 ,   5.00000000 ,   4.00000000 ,   5.68124316 ,   5.68124316 ,   62.3383793
0000000542,   2.00000000 ,   5.00000000 ,   4.00000000 ,   5.68061039 ,   5.68061039 ,   62.3370857
0000000543,   3.00000000 ,   5.00000000 ,   4.00000000 ,   5.67997614 ,   5.67997614 ,   62.3358875
0000000544,   4.00000000 ,   5.00000000 ,   4.00000000 ,   5.67955115 ,   5.67955115 ,   62.3351331
0000000545,   5.00000000 ,   5.00000000 ,   4.00000000 ,   5.67940592 ,   5.67940592 ,   62.3348840
0000000546,   6.00000000 ,   5.00000000 ,   4.00000000 ,   5.67955115 ,   5.67955115 ,   62.3351331
0000000547,   7.00000000 ,   5.00000000 ,   4.00000000 ,   5.67997614 ,   5.67997614 ,   62.3358875
0000000548,   8.00000000 ,   5.00000000 ,   4.00000000 ,   5.68061039 ,   5.68061039 ,   62.3370857
0000000549,   9.00000000 ,   5.00000000 ,   4.00000000 ,   5.68124316 ,   5.68124316 ,   62.3383793
0000000550,   10.0000000 ,   5.00000000 ,   4.00000000 ,   5.68152866 ,   5.68152866 ,   62.3390160
0000000551,   0.00000000 ,   6.00000000 ,   4.00000000 ,   5.52618373 ,   5.52618373 ,   62.4093259
0000000552,   1.00000000 ,   6.00000000 ,   4.00000000 ,   5.52539813 ,   5.52539813 ,   62.4072063
0000000553,   2.00000000 ,   6.00000000 ,   4.00000000 ,   5.52374615 ,   5.52374615 ,   62.4032847
0000000554,   3.00000000 ,   6.00000000 ,   4.00000000 ,   5.52216974 ,   5.52216974 ,   62.3999245
0000000555,   4.00000000 ,   6.00000000 ,   4.00000000 ,   5.52115422 ,   5.52115422 ,   62.3979324
0000000556,   5.00000000 ,   6.00000000 ,   4.00000000 ,   5.52081484 ,   5.52081484 ,   62.3972968
0000000557,   6.00000000 ,   6.00000000 ,   4.00000000 ,   5.52115422 ,   5.52115422 ,   62.3979324
0000000558,   7.00000000 ,   6.00000000 ,   4.00000000 ,   5.52216974 ,   5.52216974 ,   62.3999245
0000000559,   8.00000000 ,   6.00000000 ,   4.00000000 ,   5.52374615 ,   5.52374615 ,   62.4032847
0000000560,   9.00000000 ,   6.00000000 ,   4.00000000 ,   5.52539813 ,   5.52539813 ,   62.4072063
0000000561,   10.0000000 ,   6.00000000 ,   4.00000000 ,   5.52618373 ,   5.52618373 ,   62.4093259
0000000562,   0.00000000 ,   7.00000000 ,   4.00000000 ,   5.36477494 ,   5.36477494 ,   62.4911986
0000000563,   1.00000000 ,   7.00000000 ,   4.00000000 ,   5.36276396 ,   5.36276396 ,   62.4842535
0000000564,   2.00000000 ,   7.00000000 ,   4.00000000 ,   5.35882656 ,   5.35882656 ,   62.4729401
0000000565,   3.00000000 ,   7.00000000 ,   4.00000000 ,   5.35528818 ,   5.35528818 ,   62.4641342
0000000566,   4.00000000 ,   7.00000000 ,   4.00000000 ,   5.35311186 ,   5.35311186 ,   62.4592754
0000000567,   5.00000000 ,   7.00000000 ,   4.00000000 ,   5.35240311 ,   5.35240311 ,   62.4577861
0000000568,   6.00000000 ,   7.00000000 ,   4.00000000 ,   5.35311186 ,   5.35311186 ,   62.4592754
0000000569,   7.00000000 ,   7.00000000 ,   4.00000000 ,   5.35528818 ,   5.35528818 ,   62.4641342
0000000570,   8.00000000 ,   7.00000000 ,   4.00000000 ,   5.35882656 ,   5.35882656 ,   62.4729401
0000000571,   9.00000000 ,   7.00000000 ,   4.00000000 ,   5.36276396 ,   5.36276396 ,   62.4842535
0000000572,   10.0000000 ,   7.00000000 ,   4.00000000 ,   5.36477494 ,   5.36477494 ,   62.4911986
0000000573,   0.00000000 ,   8.00000000 ,   4.00000000 ,   5.18791413 ,   5.18791413 ,   62.6663318
0000000574,   1.00000000 ,   8.00000000 ,   4.00000000 ,   5.18336376 ,   5.18336376 ,   62.6444345
0000000575,   2.00000000 ,   8.00000000 ,   4.00000000 ,   5.17526756 ,   5.17526756 ,   62.6142863
0000000576,   3.00000000 ,   8.00000000 ,   4.00000000 ,   5.16849419 ,   5.16849419 ,   62.5933728
0000000577,   4.00000000 ,   8.00000000 ,   4.00000000 ,   5.16454093 ,   5.16454093 ,   62.5827430
0000000578,   5.00000000 ,   8.00000000 ,   4.00000000 ,   5.16328986 ,   5.16328986 ,   62.5796281
0000000579,   6.00000000 ,   8.00000000 ,   4.00000000 ,   5.16454093 ,   5.16454093 ,   62.5827430
0000000580,   7.00000000 ,   8.00000000 ,   4.00000000 ,   5.16849419 ,   5.16849419 ,   62.5933728
0000000581,   8.00000000 ,   8.00000000 ,   4.00000000 ,   5.17526756 ,   5.17526756 ,   62.6142863
0000000582,   9.00000000 ,   8.00000000 ,   4.00000000 ,   5.18336376 ,   5.18336376 ,   62.6444345
0000000583,   10.0000000 ,   8.00000000 ,   4.00000000 ,   5.18791413 ,   5.18791413 ,   62.6663318
0000000584,   0.00000000 ,   9.00000000 ,   4.00000000 ,   4.89720474 ,   4.89720474 ,   63.0624225
0000000585,   1.00000000 ,   9.00000000 ,   4.00000000 ,   4.88952946 ,   4.88952946 ,   62.9997546
0000000586,   2.00000000 ,   9.00000000 ,   4.00000000 ,   4.87747358 ,   4.87747358 ,   62.9299217
0000000587,   3.00000000 ,   9.00000000 ,   4.00000000 ,   4.86817691 ,   4.86817691 ,   62.8873824
0000000588,   4.00000000 ,   9.00000000 ,   4.00000000 ,   4.86304446 ,   4.86304446 ,   62.8675470
0000000589,   5.00000000 ,   9.00000000 ,   4.00000000 ,   4.86146723 ,   4.86146723 ,   62.8619931
0000000590,   6.00000000 ,   9.00000000 ,   4.00000000 ,   4.86304446 ,   4.86304446 ,   62.8675470
0000000591,   7.00000000 ,   9.00000000 ,   4.00000000 ,   4.86817691 ,   4.86817691 ,   62.8873824
0000000592,   8.00000000 ,   9.00000000 ,   4.00000000 ,   4.87747358 ,   4.87747358 ,   62.9299217
0000000593,   9.00000000 ,   9.00000000 ,   4.00000000 ,   4.88952946 ,   4.88952946 ,   62.9997546
0000000594,   10.0000000 ,   9.00000000 ,   4.00000000 ,   4.89720474 ,   4.89720474 ,   63.0624225
0000000595,   0.00000000 ,   10.0000000 ,   4.00000000 ,   4.00000000 ,   4.00000000 ,   63.6953571
0000000596,   1.00000000 ,   10.0000000 ,   4.00000000 ,   4.00000000 ,   4.00000000 ,   63.5583033
0000000597,   2.00000000 ,   10.0000000 ,   4.00000000 ,   4.00000000 ,   4.00000000 ,   63.4374525
0000000598,   3.00000000 ,   10.0000000 ,   4.00000000 ,   4.00000000 ,   4.00000000 ,   63.3721315
0000000599,   4.00000000 ,   10.0000000 ,   4.00000000 ,   4.00000000 ,   4.00000000 ,   63.3436895
0000000600,   5.00000000 ,   10.0000000 ,   4.00000000 ,   4.00000000 ,   4.00000000 ,   63.3359857
0000000601,   6.00000000 ,   10.0000000 ,   4.00000000 ,   4.00000000 ,   4.00000000 ,   63.3436895
0000000602,   7.00000000 ,   10.0000000 ,   4.00000000 ,   4.00000000 ,   4.00000000 ,   63.3721315
0000000603,   8.00000000 ,   10.0000000 ,   4.00000000 ,   4.00000000 ,   4.00000000 ,   63.4374525
0000000604,   9.00000000 ,   10.0000000 ,   4.00000000 ,   4.00000000 ,   4.00000000 ,   63.5583033
0000000605,   10.0000000 ,   10.0000000 ,   4.00000000 ,   4.00000000 ,   4.00000000 ,   63.6953571
0000000606,   0.00000000 ,   0.00000000 ,   5.00000000 ,   6.00000000 ,   6.00000000 ,   60.6681909
0000000607,   1.00000000 ,   0.00000000 ,   5.00000000 ,   6.00000000 ,   6.00000000 ,   60.6681890
0000000608,   2.00000000 ,   0.00000000 ,   5.00000000 ,   6.00000000 ,   6.00000000 ,   60.6681843
0000000609,   3.00000000 ,   0.00000000 ,   5.00000000 ,   6.00000000 ,   6.00000000 ,   60.6681790
0000000610,   4.00000000 ,   0.00000000 ,   5.00000000 ,   6.00000000 ,   6.00000000 ,   60.6681751
0000000611,   5.00000000 ,   0.00000000 ,   5.00000000 ,   6.00000000 ,   6.00000000 ,   60.6681736
0000000612,   6.00000000 ,   0.00000000 ,   5.00000000 ,   6.00000000 ,   6.00000000 ,   60.6681751
0000000613,   7.00000000 ,   0.00000000 ,   5.00000000 ,   6.00000000 ,   6.00000000 ,   60.6681790
0000000614,   8.00000000 ,   0.00000000 ,   5.00000000 ,   6.00000000 ,   6.00000000 ,   60.6681843
0000000615,   9.00000000 ,   0.00000000 ,   5.00000000 ,   6.00000000 ,   6.00000000 ,   60.6681890
0000000616,   10.0000000 ,   0.00000000 ,   5.00000000 ,   6.00000000 ,   6.00000000 ,   60.6681909
0000000617,   0.00000000 ,   1.00000000 ,   5.00000000 ,   6.11555165 ,   6.11555165 ,   60.7350076
0000000618,   1.00000000 ,   1.00000000 ,   5.00000000 ,   6.11554735 ,   6.11554735 ,   60.7350037
0000000619,   2.00000000 ,   1.00000000 ,   5.00000000 ,   6.11553671 ,   6.11553671 ,   60.7349943
0000000620,   3.00000000 ,   1.00000000 ,   5.00000000 ,   6.11552461 ,   6.11552461 ,   60.7349837
0000000621,   4.00000000 ,   1.00000000 ,   5.00000000 ,   6.11551558 ,   6.11551558 ,   60.7349760
0000000622,   5.00000000 ,   1.00000000 ,   5.00000000 ,   6.11551229 ,   6.11551229 ,   60.7349732
0000000623,   6.00000000 ,   1.00000000 ,   5.00000000 ,   6.11551558 ,   6.11551558 ,   60.7349760
0000000624,   7.00000000 ,   1.00000000 ,   5.00000000 ,   6.11552461 ,   6.11552461 ,   60.7349837
0000000625,   8.00000000 ,   1.00000000 ,   5.00000000 ,   6.11553671 ,   6.11553671 ,   60.7349943
0000000626,   9.00000000 ,   1.00000000 ,   5.00000000 ,   6.11554735 ,   6.11554735 ,   60.7350037
0000000627,   10.0000000 ,   1.00000000 ,   5.00000000 ,   6.11555165 ,   6.11555165 ,   60.7350076
0000000628,   0.00000000 ,   2.00000000 ,   5.00000000 ,   6.06095525 ,   6.06095525 ,   60.8355854
0000000629,   1.00000000 ,   2.00000000 ,   5.00000000 ,   6.06094117 ,   6.06094117 ,   60.8355730
0000000630,   2.00000000 ,   2.00000000 ,   5.00000000 ,   6.06090668 ,   6.06090668 ,   60.8355432
0000000631,   3.00000000 ,   2.00000000 ,   5.00000000 ,   6.06086802 ,   6.06086802 ,   60.8355104
0000000632,   4.00000000 ,   2.00000000 ,   5.00000000 ,   6.06083952 ,   6.06083952 ,   60.8354867
0000000633,   5.00000000 ,   2.00000000 ,   5.00000000 ,   6.06082923 ,   6.06082923 ,   60.8354783
0000000634,   6.00000000 ,   2.00000000 ,   5.00000000 ,   6.06083952 ,   6.06083952 ,   60.8354867
0000000635,   7.00000000 ,   2.00000000 ,   5.00000000 ,   6.06086802 ,   6.06086802 ,   60.8355104
0000000636,   8.00000000 ,   2.00000000 ,   5.00000000 ,   6.06090668 ,   6.06090668 ,   60.8355432
0000000637,   9.00000000 ,   2.00000000 ,   5.00000000 ,   6.06094117 ,   6.06094117 ,   60.8355730
0000000638,   10.0000000 ,   2.00000000 ,   5.00000000 ,   6.06095525 ,   6.06095525 ,   60.8355854
0000000639,   0.00000000 ,   3.00000000 ,   5.00000000 ,   5.96079832 ,   5.96079832 ,   60.9093806
0000000640,   1.00000000 ,   3.00000000 ,   5.00000000 ,   5.96075635 ,   5.96075635 ,   60.9093410
0000000641,   2.00000000 ,   3.00000000 ,   5.00000000 ,   5.96065522 ,   5.96065522 ,   60.9092480
0000000642,   3.00000000 ,   3.00000000 ,   5.00000000 ,   5.96054417 ,   5.96054417 ,   60.9091489
0000000643,   4.00000000 ,   3.00000000 ,   5.00000000 ,   5.96046377 ,   5.96046377 ,   60.9090789
0000000644,   5.00000000 ,   3.00000000 ,   5.00000000 ,   5.96043504 ,   5.96043504 ,   60.9090542
0000000645,   6.00000000 ,   3.00000000 ,   5.00000000 ,   5.96046377 ,   5.96046377 ,   60.9090789
0000000646,   7.00000000 ,   3.00000000 ,   5.00000000 ,   5.96054417 ,   5.96054417 ,   60.9091489
0000000647,   8.00000000 ,   3.00000000 ,   5.00000000 ,   5.96065522 ,   5.96065522 ,   60.9092480
0000000648,   9.00000000 ,   3.00000000 ,   5.00000000 ,   5.96075635 ,   5.96075635 ,   60.9093410
0000000649,   10.0000000 ,   3.00000000 ,   5.00000000 ,   5.96079832 ,   5.96079832 ,   60.9093806
0000000650,   0.00000000 ,   4.00000000 ,   5.00000000 ,   5.83672564 ,   5.83672564 ,   60.9385987
0000000651,   1.00000000 ,   4.00000000 ,   5.00000000 ,   5.83660674 ,   5.83660674 ,   60.9384760
0000000652,   2.00000000 ,   4.00000000 ,   5.00000000 ,   5.83632643 ,   5.83632643 ,   60.9381978
0000000653,   3.00000000 ,   4.00000000 ,   5.00000000 ,   5.83602654 ,   5.83602654 ,   60.9379120
0000000654,   4.00000000 ,   4.00000000 ,   5.00000000 ,   5.83581434 ,   5.83581434 ,   60.9377164
0000000655,   5.00000000 ,   4.00000000 ,   5.00000000 ,   5.83573952 ,   5.83573952 ,   60.9376487
0000000656,   6.00000000 ,   4.00000000 ,   5.00000000 ,   5.83581434 ,   5.83581434 ,   60.9377164
0000000657,   7.00000000 ,   4.00000000 ,   5.00000000 ,   5.83602654 ,   5.83602654 ,   60.9379120
0000000658,   8.00000000 ,   4.00000000 ,   5.00000000 ,   5.83632643 ,   5.83632643 ,   60.9381978
0000000659,   9.00000000 ,   4.00000000 ,   5.00000000 ,   5.83660674 ,   5.83660674 ,   60.9384760
0000000660,   10.0000000 ,   4.00000000 ,   5.00000000 ,   5.83672564 ,   5.83672564 ,   60.9385987
0000000661,   0.00000000 ,   5.00000000 ,   5.00000000 ,   5.69099012 ,   5.69099012 ,   60.9290093
0000000662,   1.00000000 ,   5.00000000 ,   5.00000000 ,   5.69067066 ,   5.69067066 ,   60.9286397
0000000663,   2.00000000 ,   5.00000000 ,   5.00000000 ,   5.68993886 ,   5.68993886 ,   60.9278400
0000000664,   3.00000000 ,   5.00000000 ,   5.00000000 ,   5.68918074 ,   5.68918074 ,   60.9270566
0000000665,   4.00000000 ,   5.00000000 ,   5.00000000 ,   5.68865884 ,   5.68865884 ,   60.9265409
0000000666,   5.00000000 ,   5.00000000 ,   5.00000000 ,   5.68847772 ,   5.68847772 ,   60.9263665
0000000667,   6.00000000 ,   5.00000000 ,   5.00000000 ,   5.68865884 ,   5.68865884 ,   60.9265409
0000000668,   7.00000000 ,   5.00000000 ,   5.00000000 ,   5.68918074 ,   5.68918074 ,   60.9270566
0000000669,   8.00000000 ,   5.00000000 ,   5.00000000 ,   5.68993886 ,   5.68993886 ,   60.9278400
0000000670,   9.00000000 ,   5.00000000 ,   5.00000000 ,   5.69067066 ,   5.69067066 ,   60.9286397
0000000671,   10.0000000 ,   5.00000000 ,   5.00000000 ,   5.69099012 ,   5.69099012 ,   60.9290093
0000000672,   0.00000000 ,   6.00000000 ,   5.00000000 ,   5.52797168 ,   5.52797168 ,   60.8983763
0000000673,   1.00000000 ,   6.00000000 ,   5.00000000 ,   5.52716855 ,   5.52716855 ,   60.8972976
0000000674,   2.00000000 ,   6.00000000 ,   5.00000000 ,   5.52539684 ,   5.52539684 ,   60.8951098
0000000675,   3.00000000 ,   6.00000000 ,   5.00000000 ,   5.52363114 ,   5.52363114 ,   60.8930887
0000000676,   4.00000000 ,   6.00000000 ,   5.00000000 ,   5.52245415 ,   5.52245415 ,   60.8918195
0000000677,   5.00000000 ,   6.00000000 ,   5.00000000 ,   5.52205319 ,   5.52205319 ,   60.8914013
0000000678,   6.00000000 ,   6.00000000 ,   5.00000000 ,   5.52245415 ,   5.52245415 ,   60.8918195
0000000679,   7.00000000 ,   6.00000000 ,   5.00000000 ,   5.52363114 ,   5.52363114 ,   60.8930887
0000000680,   8.00000000 ,   6.00000000 ,   5.00000000 ,   5.52539684 ,   5.52539684 ,   60.8951098
0000000681,   9.00000000 ,   6.00000000 ,   5.00000000 ,   5.52716855 ,   5.52716855 ,   60.8972976
0000000682,   10.0000000 ,   6.00000000 ,   5.00000000 ,   5.52797168 ,   5.52797168 ,   60.8983763
0000000683,   0.00000000 ,   7.00000000 ,   5.00000000 ,   5.35077862 ,   5.35077862 ,   60.8735151
0000000684,   1.00000000 ,   7.00000000 ,   5.00000000 ,   5.34894232 ,   5.34894232 ,   60.8705064
0000000685,   2.00000000 ,   7.00000000 ,   5.00000000 ,   5.34508497 ,   5.34508497 ,   60.8649117
0000000686,   3.00000000 ,   7.00000000 ,   5.00000000 ,   5.34141260 ,   5.34141260 ,   60.8600994
0000000687,   4.00000000 ,   7.00000000 ,   5.00000000 ,   5.33905294 ,   5.33905294 ,   60.8572388
0000000688,   5.00000000 ,   7.00000000 ,   5.00000000 ,   5.33826568 ,   5.33826568 ,   60.8563249
0000000689,   6.00000000 ,   7.00000000 ,   5.00000000 ,   5.33905294 ,   5.33905294 ,   60.8572388
0000000690,   7.00000000 ,   7.00000000 ,   5.00000000 ,   5.34141260 ,   5.34141260 ,   60.8600994
0000000691,   8.00000000 ,   7.00000000 ,   5.00000000 ,   5.34508497 ,   5.34508497 ,   60.8649117
0000000692,   9.00000000 ,   7.00000000 ,   5.00000000 ,   5.34894232 ,   5.34894232 ,   60.8705064
0000000693,   10.0000000 ,   7.00000000 ,   5.00000000 ,   5.35077862 ,   5.35077862 ,   60.8735151
0000000694,   0.00000000 ,   8.00000000 ,   5.00000000 ,   5.14067549 ,   5.14067549 ,   60.8908530
0000000695,   1.00000000 ,   8.00000000 ,   5.00000000 ,   5.13708914 ,   5.13708914 ,   60.8830601
0000000696,   2.00000000 ,   8.00000000 ,   5.00000000 ,   5.13001198 ,   5.13001198 ,   60.8701212
0000000697,   3.00000000 ,   8.00000000 ,   5.00000000 ,   5.12361680 ,   5.12361680 ,   60.8598868
0000000698,   4.00000000 ,   8.00000000 ,   5.00000000 ,   5.11966879 ,   5.11966879 ,   60.8541667
0000000699,   5.00000000 ,   8.00000000 ,   5.00000000 ,   5.11838063 ,   5.11838063 ,   60.8524004
0000000700,   6.00000000 ,   8.00000000 ,   5.00000000 ,   5.11966879 ,   5.11966879 ,   60.8541667
0000000701,   7.00000000 ,   8.00000000 ,   5.00000000 ,   5.12361680 ,   5.12361680 ,   60.8598868
0000000702,   8.00000000 ,   8.00000000 ,   5.00000000 ,   5.13001198 ,   5.13001198 ,   60.8701212
0000000703,   9.00000000 ,   8.00000000 ,   5.00000000 ,   5.13708914 ,   5.13708914 ,   60.8830601
0000000704,   10.0000000 ,   8.00000000 ,   5.00000000 ,   5.14067549 ,   5.14067549 ,   60.8908530
0000000705,   0.00000000 ,   9.00000000 ,   5.00000000 ,   4.79839969 ,   4.79839969 ,   60.9839005
0000000706,   1.00000000 ,   9.00000000 ,   5.00000000 ,   4.79344316 ,   4.79344316 ,   60.9663075
0000000707,   2.00000000 ,   9.00000000 ,   5.00000000 ,   4.78439138 ,   4.78439138 ,   60.9408970
0000000708,   3.00000000 ,   9.00000000 ,   5.00000000 ,   4.77666195 ,   4.77666195 ,   60.9225531
0000000709,   4.00000000 ,   9.00000000 ,   5.00000000 ,   4.77208026 ,   4.77208026 ,   60.9129252
0000000710,   5.00000000 ,   9.00000000 ,   5.00000000 ,   4.77061774 ,   4.77061774 ,   60.9100501
0000000711,   6.00000000 ,   9.00000000 ,   5.00000000 ,   4.77208026 ,   4.77208026 ,   60.9129252
0000000712,   7.00000000 ,   9.00000000 ,   5.00000000 ,   4.77666195 ,   4.77666195 ,   60.9225531
0000000713,   8.00000000 ,   9.00000000 ,   5.00000000 ,   4.78439138 ,   4.78439138 ,   60.9408970
0000000714,   9.00000000 ,   9.00000000 ,   5.00000000 ,   4.79344316 ,   4.79344316 ,   60.9663075
0000000715,   10.0000000 ,   9.00000000 ,   5.00000000 ,   4.79839969 ,   4.79839969 ,   60.9839005
0000000716,   0.00000000 ,   10.0000000 ,   5.00000000 ,   4.00000000 ,   4.00000000 ,   61.1095495
0000000717,   1.00000000 ,   10.0000000 ,   5.00000000 ,   4.00000000 ,   4.00000000 ,   61.0802096
0000000718,   2.00000000 ,   10.0000000 ,   5.00000000 ,   4.00000000 ,   4.00000000 ,   61.0433838
0000000719,   3.00000000 ,   10.0000000 ,   5.00000000 ,   4.00000000 ,   4.00000000 ,   61.0187473
0000000720,   4.00000000 ,   10.0000000 ,   5.00000000 ,   4.00000000 ,   4.00000000 ,   61.0063964
0000000721,   5.00000000 ,   10.0000000 ,   5.00000000 ,   4.00000000 ,   4.00000000 ,   61.0027910
0000000722,   6.00000000 ,   10.0000000 ,   5.00000000 ,   4.00000000 ,   4.00000000 ,   61.0063964
0000000723,   7.00000000 ,   10.0000000 ,   5.00000000 ,   4.00000000 ,   4.00000000 ,   61.0187473
0000000724,   8.00000000 ,   10.0000000 ,   5.00000000 ,   4.00000000 ,   4.00000000 ,   61.0433838
0000000725,   9.00000000 ,   10.0000000 ,   5.00000000 ,   4.00000000 ,   4.00000000 ,   61.0802096
0000000726,   10.0000000 ,   10.0000000 ,   5.00000000 ,   4.00000000 ,   4.00000000 ,   61.1095495
0000000727,   0.00000000 ,   0.00000000 ,   6.00000000 ,   6.00000000 ,   6.00000000 ,   60.2678397
0000000728,   1.00000000 ,   0.00000000 ,   6.00000000 ,   6.00000000 ,   6.00000000 ,   60.2678384
0000000729,   2.00000000 ,   0.00000000 ,   6.00000000 ,   6.00000000 ,   6.00000000 ,   60.2678353
0000000730,   3.00000000 ,   0.00000000 ,   6.00000000 ,   6.00000000 ,   6.00000000 ,   60.2678318
0000000731,   4.00000000 ,   0.00000000 ,   6.00000000 ,   6.00000000 ,   6.00000000 ,   60.2678292
0000000732,   5.00000000 ,   0.00000000 ,   6.00000000 ,   6.00000000 ,   6.00000000 ,   60.2678282
0000000733,   6.00000000 ,   0.00000000 ,   6.00000000 ,   6.00000000 ,   6.00000000 ,   60.2678292
0000000734,   7.00000000 ,   0.00000000 ,   6.00000000 ,   6.00000000 ,   6.00000000 ,   60.2678318
0000000735,   8.00000000 ,   0.00000000 ,   6.00000000 ,   6.00000000 ,   6.00000000 ,   60.2678353
0000000736,   9.00000000 ,   0.00000000 ,   6.00000000 ,   6.00000000 ,   6.00000000 ,   60.2678384
0000000737,   10.0000000 ,   0.00000000 ,   6.00000000 ,   6.00000000 ,   6.00000000 ,   60.2678397
0000000738,   0.00000000 ,   1.00000000 ,   6.00000000 ,   5.93692449 ,   5.93692449 ,   60.2716218
0000000739,   1.00000000 ,   1.00000000 ,   6.00000000 ,   5.93692233 ,   5.93692233 ,   60.2716195
0000000740,   2.00000000 ,   1.00000000 ,   6.00000000 ,   5.93691696 ,   5.93691696 ,   60.2716138
0000000741,   3.00000000 ,   1.00000000 ,   6.00000000 ,   5.93691081 ,   5.93691081 ,   60.2716074
0000000742,   4.00000000 ,   1.00000000 ,   6.00000000 ,   5.93690617 ,   5.93690617 ,   60.2716025
0000000743,   5.00000000 ,   1.00000000 ,   6.00000000 ,   5.93690448 ,   5.93690448 ,   60.2716008
0000000744,   6.00000000 ,   1.00000000 ,   6.00000000 ,   5.93690617 ,   5.93690617 ,   60.2716025
0000000745,   7.00000000 ,   1.00000000 ,   6.00000000 ,   5.93691081 ,   5.93691081 ,   60.2716074
0000000746,   8.00000000 ,   1.00000000 ,   6.00000000 ,   5.93691696 ,   5.93691696 ,   60.2716138
0000000747,   9.00000000 ,   1.00000000 ,   6.00000000 ,   5.93692233 ,   5.93692233 ,   60.2716195
0000000748,   10.0000000 ,   1.00000000 ,   6.00000000 ,   5.93692449 ,   5.93692449 ,   60.2716218
0000000749,   0.00000000 ,   2.00000000 ,   6.00000000 ,   5.79567137 ,   5.79567137 ,   60.2581323
0000000750,   1.00000000 ,   2.00000000 ,   6.00000000 ,   5.79566458 ,   5.79566458 ,   60.2581255
0000000751,   2.00000000 ,   2.00000000 ,   6.00000000 ,   5.79564783 ,   5.79564783 ,   60.2581090
0000000752,   3.00000000 ,   2.00000000 ,   6.00000000 ,   5.79562889 ,   5.79562889 ,   60.2580905
0000000753,   4.00000000 ,   2.00000000 ,   6.00000000 ,   5.79561482 ,   5.79561482 ,   60.2580769
0000000754,   5.00000000 ,   2.00000000 ,   6.00000000 ,   5.79560971 ,   5.79560971 ,   60.2580720
0000000755,   6.00000000 ,   2.00000000 ,   6.00000000 ,   5.79561482 ,   5.79561482 ,   60.2580769
0000000756,   7.00000000 ,   2.00000000 ,   6.00000000 ,   5.79562889 ,   5.79562889 ,   60.2580905
0000000757,   8.00000000 ,   2.00000000 ,   6.00000000 ,   5.79564783 ,   5.79564783 ,   60.2581090
0000000758,   9.00000000 ,   2.00000000 ,   6.00000000 ,   5.79566458 ,   5.79566458 ,   60.2581255
0000000759,   10.0000000 ,   2.00000000 ,   6.00000000 ,   5.79567137 ,   5.79567137 ,   60.2581323
0000000760,   0.00000000 ,   3.00000000 ,   6.00000000 ,   5.63334046 ,   5.63334046 ,   60.2085217
0000000761,   1.00000000 ,   3.00000000 ,   6.00000000 ,   5.63332087 ,   5.63332087 ,   60.2085013
0000000762,   2.00000000 ,   3.00000000 ,   6.00000000 ,   5.63327326 ,   5.63327326 ,   60.2084524
0000000763,   3.00000000 ,   3.00000000 ,   6.00000000 ,   5.63322042 ,   5.63322042 ,   60.2083991
0000000764,   4.00000000 ,   3.00000000 ,   6.00000000 ,   5.63318181 ,   5.63318181 ,   60.2083608
0000000765,   5.00000000 ,   3.00000000 ,   6.00000000 ,   5.63316794 ,   5.63316794 ,   60.2083471
0000000766,   6.00000000 ,   3.00000000 ,   6.00000000 ,   5.63318181 ,   5.63318181 ,   60.2083608
0000000767,   7.00000000 ,   3.00000000 ,   6.00000000 ,   5.63322042 ,   5.63322042 ,   60.2083991
0000000768,   8.00000000 ,   3.00000000 ,   6.00000000 ,   5.63327326 ,   5.63327326 ,   60.2084524
0000000769,   9.00000000 ,   3.00000000 ,   6.00000000 ,   5.63332087 ,   5.63332087 ,   60.2085013
0000000770,   10.0000000 ,   3.00000000 ,   6.00000000 ,   5.63334046 ,   5.63334046 ,   60.2085217
0000000771,   0.00000000 ,   4.00000000 ,   6.00000000 ,   5.45810197 ,   5.45810197 ,   60.1185553
0000000772,   1.00000000 ,   4.00000000 ,   6.00000000 ,   5.45804830 ,   5.45804830 ,   60.1184958
0000000773,   2.00000000 ,   4.00000000 ,   6.00000000 ,   5.45792023 ,   5.45792023 ,   60.1183571
0000000774,   3.00000000 ,   4.00000000 ,   6.00000000 ,   5.45778135 ,   5.45778135 ,   60.1182105
0000000775,   4.00000000 ,   4.00000000 ,   6.00000000 ,   5.45768192 ,   5.45768192 ,   60.1181077
0000000776,   5.00000000 ,   4.00000000 ,   6.00000000 ,   5.45764662 ,   5.45764662 ,   60.1180717
0000000777,   6.00000000 ,   4.00000000 ,   6.00000000 ,   5.45768192 ,   5.45768192 ,   60.1181077
0000000778,   7.00000000 ,   4.00000000 ,   6.00000000 ,   5.45778135 ,   5.45778135 ,   60.1182105
0000000779,   8.00000000 ,   4.00000000 ,   6.00000000 ,   5.45792024 ,   5.45792024 ,   60.1183571
0000000780,   9.00000000 ,   4.00000000 ,   6.00000000 ,   5.45804830 ,   5.45804830 ,   60.1184958
0000000781,   10.0000000 ,   4.00000000 ,   6.00000000 ,   5.45810197 ,   5.45810197 ,   60.1185553
0000000782,   0.00000000 ,   5.00000000 ,   6.00000000 ,   5.26996115 ,   5.26996115 ,   59.9944269
0000000783,   1.00000000 ,   5.00000000 ,   6.00000000 ,   5.26982225 ,   5.26982225 ,   59.9942603
0000000784,   2.00000000 ,   5.00000000 ,   6.00000000 ,   5.26949862 ,   5.26949862 ,   59.9938853
0000000785,   3.00000000 ,   5.00000000 ,   6.00000000 ,   5.26915729 ,   5.26915729 ,   59.9935035
0000000786,   4.00000000 ,   5.00000000 ,   6.00000000 ,   5.26891878 ,   5.26891878 ,   59.9932443
0000000787,   5.00000000 ,   5.00000000 ,   6.00000000 ,   5.26883530 ,   5.26883530 ,   59.9931550
0000000788,   6.00000000 ,   5.00000000 ,   6.00000000 ,   5.26891878 ,   5.26891878 ,   59.9932443
0000000789,   7.00000000 ,   5.00000000 ,   6.00000000 ,   5.26915729 ,   5.26915729 ,   59.9935035
0000000790,   8.00000000 ,   5.00000000 ,   6.00000000 ,   5.26949862 ,   5.26949862 ,   59.9938853
0000000791,   9.00000000 ,   5.00000000 ,   6.00000000 ,   5.26982225 ,   5.26982225 ,   59.9942603
0000000792,   10.0000000 ,   5.00000000 ,   6.00000000 ,   5.26996115 ,   5.26996115 ,   59.9944269
0000000793,   0.00000000 ,   6.00000000 ,   6.00000000 ,   5.07052606 ,   5.07052606 ,   59.8483359
0000000794,   1.00000000 ,   6.00000000 ,   6.00000000 ,   5.07019216 ,   5.07019216 ,   59.8478922
0000000795,   2.00000000 ,   6.00000000 ,   6.00000000 ,   5.06943728 ,   5.06943728 ,   59.8469377
0000000796,   3.00000000 ,   6.00000000 ,   6.00000000 ,   5.06866674 ,   5.06866674 ,   59.8460088
0000000797,   4.00000000 ,   6.00000000 ,   6.00000000 ,   5.06814310 ,   5.06814310 ,   59.8454011
0000000798,   5.00000000 ,   6.00000000 ,   6.00000000 ,   5.06796275 ,   5.06796275 ,   59.8451963
0000000799,   6.00000000 ,   6.00000000 ,   6.00000000 ,   5.06814310 ,   5.06814310 ,   59.8454011
0000000800,   7.00000000 ,   6.00000000 ,   6.00000000 ,   5.06866674 ,   5.06866674 ,   59.8460088
0000000801,   8.00000000 ,   6.00000000 ,   6.00000000 ,   5.06943728 ,   5.06943728 ,   59.8469377
0000000802,   9.00000000 ,   6.00000000 ,   6.00000000 ,   5.07019216 ,   5.07019216 ,   59.8478922
0000000803,   10.0000000 ,   6.00000000 ,   6.00000000 ,   5.07052606 ,   5.07052606 ,   59.8483359
0000000804,   0.00000000 ,   7.00000000 ,   6.00000000 ,   4.86163350 ,   4.86163350 ,   59.6968217
0000000805,   1.00000000 ,   7.00000000 ,   6.00000000 ,   4.86091072 ,   4.86091072 ,   59.6957156
0000000806,   2.00000000 ,   7.00000000 ,   6.00000000 ,   4.85933688 ,   4.85933688 ,   59.6934742
0000000807,   3.00000000 ,   7.00000000 ,   6.00000000 ,   4.85778960 ,   4.85778960 ,   59.6914069
0000000808,   4.00000000 ,   7.00000000 ,   6.00000000 ,   4.85677008 ,   4.85677008 ,   59.6901110
0000000809,   5.00000000 ,   7.00000000 ,   6.00000000 ,   4.85642511 ,   4.85642511 ,   59.6896846
0000000810,   6.00000000 ,   7.00000000 ,   6.00000000 ,   4.85677008 ,   4.85677008 ,   59.6901110
0000000811,   7.00000000 ,   7.00000000 ,   6.00000000 ,   4.85778960 ,   4.85778960 ,   59.6914069
0000000812,   8.00000000 ,   7.00000000 ,   6.00000000 ,   4.85933688 ,   4.85933688 ,   59.6934742
0000000813,   9.00000000 ,   7.00000000 ,   6.00000000 ,   4.86091072 ,   4.86091072 ,   59.6957156
0000000814,   10.0000000 ,   7.00000000 ,   6.00000000 ,   4.86163350 ,   4.86163350 ,   59.6968217
0000000815,   0.00000000 ,   8.00000000 ,   6.00000000 ,   4.63849692 ,   4.63849692 ,   59.5612445
0000000816,   1.00000000 ,   8.00000000 ,   6.00000000 ,   4.63717734 ,   4.63717734 ,   59.5587464
0000000817,   2.00000000 ,   8.00000000 ,   6.00000000 ,   4.63443210 ,   4.63443210 ,   59.5540535
0000000818,   3.00000000 ,   8.00000000 ,   6.00000000 ,   4.63184216 ,   4.63184216 ,   59.5499818
0000000819,   4.00000000 ,   8.00000000 ,   6.00000000 ,   4.63019029 ,   4.63019029 ,   59.5475449
0000000820,   5.00000000 ,   8.00000000 ,   6.00000000 ,   4.62964152 ,   4.62964152 ,   59.5467635
0000000821,   6.00000000 ,   8.00000000 ,   6.00000000 ,   4.63019029 ,   4.63019029 ,   59.5475449
0000000822,   7.00000000 ,   8.00000000 ,   6.00000000 ,   4.63184216 ,   4.63184216 ,   59.5499818
0000000823,   8.00000000 ,   8.00000000 ,   6.00000000 ,   4.63443210 ,   4.63443210 ,   59.5540535
0000000824,   9.00000000 ,   8.00000000 ,   6.00000000 ,   4.63717734 ,   4.63717734 ,   59.5587464
0000000825,   10.0000000 ,   8.00000000 ,   6.00000000 ,   4.63849692 ,   4.63849692 ,   59.5612445
0000000826,   0.00000000 ,   9.00000000 ,   6.00000000 ,   4.37555917 ,   4.37555917 ,   59.4685431
0000000827,   1.00000000 ,   9.00000000 ,   6.00000000 ,   4.37387933 ,   4.37387933 ,   59.4637427
0000000828,   2.00000000 ,   9.00000000 ,   6.00000000 ,   4.37056237 ,   4.37056237 ,   59.4554937
0000000829,   3.00000000 ,   9.00000000 ,   6.00000000 ,   4.36756054 ,   4.36756054 ,   59.4487766
0000000830,   4.00000000 ,   9.00000000 ,   6.00000000 ,   4.36570421 ,   4.36570421 ,   59.4449343
0000000831,   5.00000000 ,   9.00000000 ,   6.00000000 ,   4.36509783 ,   4.36509783 ,   59.4437318
0000000832,   6.00000000 ,   9.00000000 ,   6.00000000 ,   4.36570421 ,   4.36570421 ,   59.4449343
0000000833,   7.00000000 ,   9.00000000 ,   6.00000000 ,   4.36756054 ,   4.36756054 ,   59.4487766
0000000834,   8.00000000 ,   9.00000000 ,   6.00000000 ,   4.37056237 ,   4.37056237 ,   59.4554937
0000000835,   9.00000000 ,   9.00000000 ,   6.00000000 ,   4.37387933 ,   4.37387933 ,   59.4637427
0000000836,   10.0000000 ,   9.00000000 ,   6.00000000 ,   4.37555917 ,   4.37555917 ,   59.4685431
0000000837,   0.00000000 ,   10.0000000 ,   6.00000000 ,   4.00000000 ,   4.00000000 ,   59.4493338
0000000838,   1.00000000 ,   10.0000000 ,   6.00000000 ,   4.00000000 ,   4.00000000 ,   59.4425224
0000000839,   2.00000000 ,   10.0000000 ,   6.00000000 ,   4.00000000 ,   4.00000000 ,   59.4317126
0000000840,   3.00000000 ,   10.0000000 ,   6.00000000 ,   4.00000000 ,   4.00000000 ,   59.4233115
0000000841,   4.00000000 ,   10.0000000 ,   6.00000000 ,   4.00000000 ,   4.00000000 ,   59.4186456
0000000842,   5.00000000 ,   10.0000000 ,   6.00000000 ,   4.00000000 ,   4.00000000 ,   59.4172069
0000000843,   6.00000000 ,   10.0000000 ,   6.00000000 ,   4.00000000 ,   4.00000000 ,   59.4186456
0000000844,   7.00000000 ,   10.0000000 ,   6.00000000 ,   4.00000000 ,   4.00000000 ,   59.4233115
0000000845,   8.00000000 ,   10.0000000 ,   6.00000000 ,   4.00000000 ,   4.00000000 ,   59.4317126
0000000846,   9.00000000 ,   10.0000000 ,   6.00000000 ,   4.00000000 ,   4.00000000 ,   59.4425224
0000000847,   10.0000000 ,   10.0000000 ,   6.00000000 ,   4.00000000 ,   4.00000000 ,   59.4493338
0000000848,   0.00000000 ,   0.00000000 ,   7.00000000 ,   6.00000000 ,   6.00000000 ,   60.0013086
0000000849,   1.00000000 ,   0.00000000 ,   7.00000000 ,   6.00000000 ,   6.00000000 ,   60.0013085
0000000850,   2.00000000 ,   0.00000000 ,   7.00000000 ,   6.00000000 ,   6.00000000 ,   60.0013082
0000000851,   3.00000000 ,   0.00000000 ,   7.00000000 ,   6.00000000 ,   6.00000000 ,   60.0013080
0000000852,   4.00000000 ,   0.00000000 ,   7.00000000 ,   6.00000000 ,   6.00000000 ,   60.0013078
0000000853,   5.00000000 ,   0.00000000 ,   7.00000000 ,   6.00000000 ,   6.00000000 ,   60.0013077
0000000854,   6.00000000 ,   0.00000000 ,   7.00000000 ,   6.00000000 ,   6.00000000 ,   60.0013078
0000000855,   7.00000000 ,   0.00000000 ,   7.00000000 ,   6.00000000 ,   6.00000000 ,   60.0013080
0000000856,   8.00000000 ,   0.00000000 ,   7.00000000 ,   6.00000000 ,   6.00000000 ,   60.0013082
0000000857,   9.00000000 ,   0.00000000 ,   7.00000000 ,   6.00000000 ,   6.00000000 ,   60.0013085
0000000858,   10.0000000 ,   0.00000000 ,   7.00000000 ,   6.00000000 ,   6.00000000 ,   60.0013086
0000000859,   0.00000000 ,   1.00000000 ,   7.00000000 ,   5.80779847 ,   5.80779847 ,   59.9765903
0000000860,   1.00000000 ,   1.00000000 ,   7.00000000 ,   5.80779848 ,   5.80779848 ,   59.9765900
0000000861,   2.00000000 ,   1.00000000 ,   7.00000000 ,   5.80779850 ,   5.80779850 ,   59.9765893
0000000862,   3.00000000 ,   1.00000000 ,   7.00000000 ,   5.80779853 ,   5.80779853 ,   59.9765884
0000000863,   4.00000000 ,   1.00000000 ,   7.00000000 ,   5.80779855 ,   5.80779855 ,   59.9765877
0000000864,   5.00000000 ,   1.00000000 ,   7.00000000 ,   5.80779856 ,   5.80779856 ,   59.9765874
0000000865,   6.00000000 ,   1.00000000 ,   7.00000000 ,   5.80779855 ,   5.80779855 ,   59.9765877
0000000866,   7.00000000 ,   1.00000000 ,   7.00000000 ,   5.80779853 ,   5.80779853 ,   59.9765884
0000000867,   8.00000000 ,   1.00000000 ,   7.00000000 ,   5.80779850 ,   5.80779850 ,   59.9765893
0000000868,   9.00000000 ,   1.00000000 ,   7.00000000 ,   5.80779848 ,   5.80779848 ,   59.9765900
0000000869,   10.0000000 ,   1.00000000 ,   7.00000000 ,   5.80779847 ,   5.80779847 ,   59.9765903
0000000870,   0.00000000 ,   2.00000000 ,   7.00000000 ,   5.61437481 ,   5.61437481 ,   59.8856902
0000000871,   1.00000000 ,   2.00000000 ,   7.00000000 ,   5.61437483 ,   5.61437483 ,   59.8856892
0000000872,   2.00000000 ,   2.00000000 ,   7.00000000 ,   5.61437489 ,   5.61437489 ,   59.8856868
0000000873,   3.00000000 ,   2.00000000 ,   7.00000000 ,   5.61437496 ,   5.61437496 ,   59.8856842
0000000874,   4.00000000 ,   2.00000000 ,   7.00000000 ,   5.61437501 ,   5.61437501 ,   59.8856822
0000000875,   5.00000000 ,   2.00000000 ,   7.00000000 ,   5.61437504 ,   5.61437504 ,   59.8856815
0000000876,   6.00000000 ,   2.00000000 ,   7.00000000 ,   5.61437501 ,   5.61437501 ,   59.8856822
0000000877,   7.00000000 ,   2.00000000 ,   7.00000000 ,   5.61437496 ,   5.61437496 ,   59.8856842
0000000878,   8.00000000 ,   2.00000000 ,   7.00000000 ,   5.61437489 ,   5.61437489 ,   59.8856868
0000000879,   9.00000000 ,   2.00000000 ,   7.00000000 ,   5.61437483 ,   5.61437483 ,   59.8856892
0000000880,   10.0000000 ,   2.00000000 ,   7.00000000 ,   5.61437481 ,   5.61437481 ,   59.8856902
0000000881,   0.00000000 ,   3.00000000 ,   7.00000000 ,   5.41941528 ,   5.41941528 ,   59.7319554
0000000882,   1.00000000 ,   3.00000000 ,   7.00000000 ,   5.41941533 ,   5.41941533 ,   59.7319526
0000000883,   2.00000000 ,   3.00000000 ,   7.00000000 ,   5.41941544 ,   5.41941544 ,   59.7319457
0000000884,   3.00000000 ,   3.00000000 ,   7.00000000 ,   5.41941557 ,   5.41941557 ,   59.7319381
0000000885,   4.00000000 ,   3.00000000 ,   7.00000000 ,   5.41941568 ,   5.41941568 ,   59.7319325
0000000886,   5.00000000 ,   3.00000000 ,   7.00000000 ,   5.41941572 ,   5.41941572 ,   59.7319305
0000000887,   6.00000000 ,   3.00000000 ,   7.00000000 ,   5.41941568 ,   5.41941568 ,   59.7319325
0000000888,   7.00000000 ,   3.00000000 ,   7.00000000 ,   5.41941557 ,   5.41941557 ,   59.7319381
0000000889,   8.00000000 ,   3.00000000 ,   7.00000000 ,   5.41941544 ,   5.41941544 ,   59.7319457
0000000890,   9.00000000 ,   3.00000000 ,   7.00000000 ,   5.41941533 ,   5.41941533 ,   59.7319526
0000000891,   10.0000000 ,   3.00000000 ,   7.00000000 ,   5.41941528 ,   5.41941528 ,   59.7319554
0000000892,   0.00000000 ,   4.00000000 ,   7.00000000 ,   5.22268257 ,   5.22268257 ,   59.5228797
0000000893,   1.00000000 ,   4.00000000 ,   7.00000000 ,   5.22268265 ,   5.22268265 ,   59.5228714
0000000894,   2.00000000 ,   4.00000000 ,   7.00000000 ,   5.22268286 ,   5.22268286 ,   59.5228520
0000000895,   3.00000000 ,   4.00000000 ,   7.00000000 ,   5.22268311 ,   5.22268311 ,   59.5228310
0000000896,   4.00000000 ,   4.00000000 ,   7.00000000 ,   5.22268330 ,   5.22268330 ,   59.5228161
0000000897,   5.00000000 ,   4.00000000 ,   7.00000000 ,   5.22268337 ,   5.22268337 ,   59.5228109
0000000898,   6.00000000 ,   4.00000000 ,   7.00000000 ,   5.22268330 ,   5.22268330 ,   59.5228161
0000000899,   7.00000000 ,   4.00000000 ,   7.00000000 ,   5.22268311 ,   5.22268311 ,   59.5228310
0000000900,   8.00000000 ,   4.00000000 ,   7.00000000 ,   5.22268286 ,   5.22268286 ,   59.5228520
0000000901,   9.00000000 ,   4.00000000 ,   7.00000000 ,   5.22268265 ,   5.22268265 ,   59.5228714
0000000902,   10.0000000 ,   4.00000000 ,   7.00000000 ,   5.22268257 ,   5.22268257 ,   59.5228797
0000000903,   0.00000000 ,   5.00000000 ,   7.00000000 ,   5.02401577 ,   5.02401577 ,   59.2682023
0000000904,   1.00000000 ,   5.00000000 ,   7.00000000 ,   5.02401591 ,   5.02401591 ,   59.2681796
0000000905,   2.00000000 ,   5.00000000 ,   7.00000000 ,   5.02401628 ,   5.02401628 ,   59.2681271
0000000906,   3.00000000 ,   5.00000000 ,   7.00000000 ,   5.02401670 ,   5.02401670 ,   59.2680725
0000000907,   4.00000000 ,   5.00000000 ,   7.00000000 ,   5.02401703 ,   5.02401703 ,   59.2680346
0000000908,   5.00000000 ,   5.00000000 ,   7.00000000 ,   5.02401715 ,   5.02401715 ,   59.2680214
0000000909,   6.00000000 ,   5.00000000 ,   7.00000000 ,   5.02401703 ,   5.02401703 ,   59.2680346
0000000910,   7.00000000 ,   5.00000000 ,   7.00000000 ,   5.02401670 ,   5.02401670 ,   59.2680725
0000000911,   8.00000000 ,   5.00000000 ,   7.00000000 ,   5.02401628 ,   5.02401628 ,   59.2681271
0000000912,   9.00000000 ,   5.00000000 ,   7.00000000 ,   5.02401591 ,   5.02401591 ,   59.2681796
0000000913,   10.0000000 ,   5.00000000 ,   7.00000000 ,   5.02401577 ,   5.02401577 ,   59.2682023
0000000914,   0.00000000 ,   6.00000000 ,   7.00000000 ,   4.82331918 ,   4.82331918 ,   58.9786419
0000000915,   1.00000000 ,   6.00000000 ,   7.00000000 ,   4.82331943 ,   4.82331943 ,   58.9785818
0000000916,   2.00000000 ,   6.00000000 ,   7.00000000 ,   4.82332004 ,   4.82332004 ,   58.9784485
0000000917,   3.00000000 ,   6.00000000 ,   7.00000000 ,   4.82332074 ,   4.82332074 ,   58.9783145
0000000918,   4.00000000 ,   6.00000000 ,   7.00000000 ,   4.82332126 ,   4.82332126 ,   58.9782245
0000000919,   5.00000000 ,   6.00000000 ,   7.00000000 ,   4.82332145 ,   4.82332145 ,   58.9781936
0000000920,   6.00000000 ,   6.00000000 ,   7.00000000 ,   4.82332126 ,   4.82332126 ,   58.9782245
0000000921,   7.00000000 ,   6.00000000 ,   7.00000000 ,   4.82332074 ,   4.82332074 ,   58.9783145
0000000922,   8.00000000 ,   6.00000000 ,   7.00000000 ,   4.82332004 ,   4.82332004 ,   58.9784485
0000000923,   9.00000000 ,   6.00000000 ,   7.00000000 ,   4.82331943 ,   4.82331943 ,   58.9785818
0000000924,   10.0000000 ,   6.00000000 ,   7.00000000 ,   4.82331918 ,   4.82331918 ,   58.9786419
0000000925,   0.00000000 ,   7.00000000 ,   7.00000000 ,   4.62054895 ,   4.62054895 ,   58.6653910
0000000926,   1.00000000 ,   7.00000000 ,   7.00000000 ,   4.62054935 ,   4.62054935 ,   58.6652428
0000000927,   2.00000000 ,   7.00000000 ,   7.00000000 ,   4.62055028 ,   4.62055028 ,   58.6649281
0000000928,   3.00000000 ,   7.00000000 ,   7.00000000 ,   4.62055131 ,   4.62055131 ,   58.6646252
0000000929,   4.00000000 ,   7.00000000 ,   7.00000000 ,   4.62055206 ,   4.62055206 ,   58.6644286
0000000930,   5.00000000 ,   7.00000000 ,   7.00000000 ,   4.62055233 ,   4.62055233 ,   58.6643626
0000000931,   6.00000000 ,   7.00000000 ,   7.00000000 ,   4.62055206 ,   4.62055206 ,   58.6644286
0000000932,   7.00000000 ,   7.00000000 ,   7.00000000 ,   4.62055131 ,   4.62055131 ,   58.6646252
0000000933,   8.00000000 ,   7.00000000 ,   7.00000000 ,   4.62055028 ,   4.62055028 ,   58.6649281
0000000934,   9.00000000 ,   7.00000000 ,   7.00000000 ,   4.62054935 ,   4.62054935 ,   58.6652428
0000000935,   10.0000000 ,   7.00000000 ,   7.00000000 ,   4.62054895 ,   4.62054895 ,   58.6653910
0000000936,   0.00000000 ,   8.00000000 ,   7.00000000 ,   4.41570199 ,   4.41570199 ,   58.3414139
0000000937,   1.00000000 ,   8.00000000 ,   7.00000000 ,   4.41570252 ,   4.41570252 ,   58.3410813
0000000938,   2.00000000 ,   8.00000000 ,   7.00000000 ,   4.41570375 ,   4.41570375 ,   58.3404125
0000000939,   3.00000000 ,   8.00000000 ,   7.00000000 ,   4.41570504 ,   4.41570504 ,   58.3397978
0000000940,   4.00000000 ,   8.00000000 ,   7.00000000 ,   4.41570595 ,   4.41570595 ,   58.3394129
0000000941,   5.00000000 ,   8.00000000 ,   7.00000000 ,   4.41570627 ,   4.41570627 ,   58.3392863
0000000942,   6.00000000 ,   8.00000000 ,   7.00000000 ,   4.41570595 ,   4.41570595 ,   58.3394129
0000000943,   7.00000000 ,   8.00000000 ,   7.00000000 ,   4.41570504 ,   4.41570504 ,   58.3397978
0000000944,   8.00000000 ,   8.00000000 ,   7.00000000 ,   4.41570375 ,   4.41570375 ,   58.3404125
0000000945,   9.00000000 ,   8.00000000 ,   7.00000000 ,   4.41570252 ,   4.41570252 ,   58.3410813
0000000946,   10.0000000 ,   8.00000000 ,   7.00000000 ,   4.41570199 ,   4.41570199 ,   58.3414139
0000000947,   0.00000000 ,   9.00000000 ,   7.00000000 ,   4.20881340 ,   4.20881340 ,   58.0349772
0000000948,   1.00000000 ,   9.00000000 ,   7.00000000 ,   4.20881391 ,   4.20881391 ,   58.0343386
0000000949,   2.00000000 ,   9.00000000 ,   7.00000000 ,   4.20881503 ,   4.20881503 ,   58.0331265
0000000950,   3.00000000 ,   9.00000000 ,   7.00000000 ,   4.20881616 ,   4.20881616 ,   58.0320607
0000000951,   4.00000000 ,   9.00000000 ,   7.00000000 ,   4.20881693 ,   4.20881693 ,   58.0314146
0000000952,   5.00000000 ,   9.00000000 ,   7.00000000 ,   4.20881720 ,   4.20881720 ,   58.0312057
0000000953,   6.00000000 ,   9.00000000 ,   7.00000000 ,   4.20881693 ,   4.20881693 ,   58.0314146
0000000954,   7.00000000 ,   9.00000000 ,   7.00000000 ,   4.20881616 ,   4.20881616 ,   58.0320607
0000000955,   8.00000000 ,   9.00000000 ,   7.00000000 ,   4.20881503 ,   4.20881503 ,   58.0331265
0000000956,   9.00000000 ,   9.00000000 ,   7.00000000 ,   4.20881391 ,   4.20881391 ,   58.0343386
0000000957,   10.0000000 ,   9.00000000 ,   7.00000000 ,   4.20881340 ,   4.20881340 ,   58.0349772
0000000958,   0.00000000 ,   10.0000000 ,   7.00000000 ,   4.00000000 ,   4.00000000 ,   57.9160615
0000000959,   1.00000000 ,   10.0000000 ,   7.00000000 ,   4.00000000 ,   4.00000000 ,   57.9152127
0000000960,   2.00000000 ,   10.0000000 ,   7.00000000 ,   4.00000000 ,   4.00000000 ,   57.9136603
0000000961,   3.00000000 ,   10.0000000 ,   7.00000000 ,   4.00000000 ,   4.00000000 ,   57.9123271
0000000962,   4.00000000 ,   10.0000000 ,   7.00000000 ,   4.00000000 ,   4.00000000 ,   57.9115314
0000000963,   5.00000000 ,   10.0000000 ,   7.00000000 ,   4.00000000 ,   4.00000000 ,   57.9112762
0000000964,   6.00000000 ,   10.0000000 ,   7.00000000 ,   4.00000000 ,   4.00000000 ,   57.9115314
0000000965,   7.00000000 ,   10.0000000 ,   7.00000000 ,   4.00000000 ,   4.00000000 ,   57.9123271
0000000966,   8.00000000 ,   10.0000000 ,   7.00000000 ,   4.00000000 ,   4.00000000 ,   57.9136603
0000000967,   9.00000000 ,   10.0000000 ,   7.00000000 ,   4.00000000 ,   4.00000000 ,   57.9152127
0000000968,   10.0000000 ,   10.0000000 ,   7.00000000 ,   4.00000000 ,   4.00000000 ,   57.9160615
0000000969,   0.00000000 ,   0.00000000 ,   8.00000000 ,   6.00000000 ,   6.00000000 ,   59.8138062
0000000970,   1.00000000 ,   0.00000000 ,   8.00000000 ,   6.00000000 ,   6.00000000 ,   59.8138062
0000000971,   2.00000000 ,   0.00000000 ,   8.00000000 ,   6.00000000 ,   6.00000000 ,   59.8138061
0000000972,   3.00000000 ,   0.00000000 ,   8.00000000 ,   6.00000000 ,   6.00000000 ,   59.8138061
0000000973,   4.00000000 ,   0.00000000 ,   8.00000000 ,   6.00000000 ,   6.00000000 ,   59.8138061
0000000974,   5.00000000 ,   0.00000000 ,   8.00000000 ,   6.00000000 ,   6.00000000 ,   59.8138061
0000000975,   6.00000000 ,   0.00000000 ,   8.00000000 ,   6.00000000 ,   6.00000000 ,   59.8138061
0000000976,   7.00000000 ,   0.00000000 ,   8.00000000 ,   6.00000000 ,   6.00000000 ,   59.8138061
0000000977,   8.00000000 ,   0.00000000 ,   8.00000000 ,   6.00000000 ,   6.00000000 ,   59.8138061
0000000978,   9.00000000 ,   0.00000000 ,   8.00000000 ,   6.00000000 ,   6.00000000 ,   59.8138062
0000000979,   10.0000000 ,   0.00000000 ,   8.00000000 ,   6.00000000 ,   6.00000000 ,   59.8138062
0000000980,   0.00000000 ,   1.00000000 ,   8.00000000 ,   5.80971884 ,   5.80971884 ,   59.3158698
0000000981,   1.00000000 ,   1.00000000 ,   8.00000000 ,   5.80971884 ,   5.80971884 ,   59.3158698
0000000982,   2.00000000 ,   1.00000000 ,   8.00000000 ,   5.80971885 ,   5.80971885 ,   59.3158696
0000000983,   3.00000000 ,   1.00000000 ,   8.00000000 ,   5.80971886 ,   5.80971886 ,   59.3158695
0000000984,   4.00000000 ,   1.00000000 ,   8.00000000 ,   5.80971887 ,   5.80971887 ,   59.3158694
0000000985,   5.00000000 ,   1.00000000 ,   8.00000000 ,   5.80971888 ,   5.80971888 ,   59.3158693
0000000986,   6.00000000 ,   1.00000000 ,   8.00000000 ,   5.80971887 ,   5.80971887 ,   59.3158694
0000000987,   7.00000000 ,   1.00000000 ,   8.00000000 ,   5.80971886 ,   5.80971886 ,   59.3158695
0000000988,   8.00000000 ,   1.00000000 ,   8.00000000 ,   5.80971885 ,   5.80971885 ,   59.3158696
0000000989,   9.00000000 ,   1.00000000 ,   8.00000000 ,   5.80971884 ,   5.80971884 ,   59.3158698
0000000990,   10.0000000 ,   1.00000000 ,   8.00000000 ,   5.80971884 ,   5.80971884 ,   59.3158698
0000000991,   0.00000000 ,   2.00000000 ,   8.00000000 ,   5.61766620 ,   5.61766620 ,   58.6695395
0000000992,   1.00000000 ,   2.00000000 ,   8.00000000 ,   5.61766621 ,   5.61766621 ,   58.6695394
0000000993,   2.00000000 ,   2.00000000 ,   8.00000000 ,   5.61766623 ,   5.61766623 ,   58.6695390
0000000994,   3.00000000 ,   2.00000000 ,   8.00000000 ,   5.61766626 ,   5.61766626 ,   58.6695386
0000000995,   4.00000000 ,   2.00000000 ,   8.00000000 ,   5.61766628 ,   5.61766628 ,   58.6695383
0000000996,   5.00000000 ,   2.00000000 ,   8.00000000 ,   5.61766629 ,   5.61766629 ,   58.6695382
0000000997,   6.00000000 ,   2.00000000 ,   8.00000000 ,   5.61766628 ,   5.61766628 ,   58.6695383
0000000998,   7.00000000 ,   2.00000000 ,   8.00000000 ,   5.61766626 ,   5.61766626 ,   58.6695386
0000000999,   8.00000000 ,   2.00000000 ,   8.00000000 ,   5.61766623 ,   5.61766623 ,   58.6695390
0000001000,   9.00000000 ,   2.00000000 ,   8.00000000 ,   5.61766621 ,   5.61766621 ,   58.6695394
0000001001,   10.0000000 ,   2.00000000 ,   8.00000000 ,   5.61766620 ,   5.61766620 ,   58.6695395
0000001002,   0.00000000 ,   3.00000000 ,   8.00000000 ,   5.42337656 ,   5.42337656 ,   57.9464516
0000001003,   1.00000000 ,   3.00000000 ,   8.00000000 ,   5.42337658 ,   5.42337658 ,   57.9464511
0000001004,   2.00000000 ,   3.00000000 ,   8.00000000 ,   5.42337662 ,   5.42337662 ,   57.9464502
0000001005,   3.00000000 ,   3.00000000 ,   8.00000000 ,   5.42337667 ,   5.42337667 ,   57.9464490
0000001006,   4.00000000 ,   3.00000000 ,   8.00000000 ,   5.42337671 ,   5.42337671 ,   57.9464482
0000001007,   5.00000000 ,   3.00000000 ,   8.00000000 ,   5.42337672 ,   5.42337672 ,   57.9464479
0000001008,   6.00000000 ,   3.00000000 ,   8.00000000 ,   5.42337671 ,   5.42337671 ,   57.9464482
0000001009,   7.00000000 ,   3.00000000 ,   8.00000000 ,   5.42337667 ,   5.42337667 ,   57.9464490
0000001010,   8.00000000 ,   3.00000000 ,   8.00000000 ,   5.42337662 ,   5.42337662 ,   57.9464502
0000001011,   9.00000000 ,   3.00000000 ,   8.00000000 ,   5.42337658 ,   5.42337658 ,   57.9464511
0000001012,   10.0000000 ,   3.00000000 ,   8.00000000 ,   5.42337656 ,   5.42337656 ,   57.9464516
0000001013,   0.00000000 ,   4.00000000 ,   8.00000000 ,   5.22670445 ,   5.22670445 ,   57.1935103
0000001014,   1.00000000 ,   4.00000000 ,   8.00000000 ,   5.22670448 ,   5.22670448 ,   57.1935092
0000001015,   2.00000000 ,   4.00000000 ,   8.00000000 ,   5.22670455 ,   5.22670455 ,   57.1935064
0000001016,   3.00000000 ,   4.00000000 ,   8.00000000 ,   5.22670464 ,   5.22670464 ,   57.1935034
0000001017,   4.00000000 ,   4.00000000 ,   8.00000000 ,   5.22670470 ,   5.22670470 ,   57.1935012
0000001018,   5.00000000 ,   4.00000000 ,   8.00000000 ,   5.22670473 ,   5.22670473 ,   57.1935004
0000001019,   6.00000000 ,   4.00000000 ,   8.00000000 ,   5.22670470 ,   5.22670470 ,   57.1935012
0000001020,   7.00000000 ,   4.00000000 ,   8.00000000 ,   5.22670464 ,   5.22670464 ,   57.1935034
0000001021,   8.00000000 ,   4.00000000 ,   8.00000000 ,   5.22670455 ,   5.22670455 ,   57.1935064
0000001022,   9.00000000 ,   4.00000000 ,   8.00000000 ,   5.22670448 ,   5.22670448 ,   57.1935092
0000001023,   10.0000000 ,   4.00000000 ,   8.00000000 ,   5.22670445 ,   5.22670445 ,   57.1935103
0000001024,   0.00000000 ,   5.00000000 ,   8.00000000 ,   5.02765728 ,   5.02765728 ,   56.4404615
0000001025,   1.00000000 ,   5.00000000 ,   8.00000000 ,   5.02765732 ,   5.02765732 ,   56.4404584
0000001026,   2.00000000 ,   5.00000000 ,   8.00000000 ,   5.02765744 ,   5.02765744 ,   56.4404509
0000001027,   3.00000000 ,   5.00000000 ,   8.00000000 ,   5.02765758 ,   5.02765758 ,   56.4404430
0000001028,   4.00000000 ,   5.00000000 ,   8.00000000 ,   5.02765768 ,   5.02765768 ,   56.4404375
0000001029,   5.00000000 ,   5.00000000 ,   8.00000000 ,   5.02765773 ,   5.02765773 ,   56.4404355
0000001030,   6.00000000 ,   5.00000000 ,   8.00000000 ,   5.02765768 ,   5.02765768 ,   56.4404375
0000001031,   7.00000000 ,   5.00000000 ,   8.00000000 ,   5.02765758 ,   5.02765758 ,   56.4404430
0000001032,   8.00000000 ,   5.00000000 ,   8.00000000 ,   5.02765744 ,   5.02765744 ,   56.4404509
0000001033,   9.00000000 ,   5.00000000 ,   8.00000000 ,   5.02765732 ,   5.02765732 ,   56.4404584
0000001034,   10.0000000 ,   5.00000000 ,   8.00000000 ,   5.02765728 ,   5.02765728 ,   56.4404615
0000001035,   0.00000000 ,   6.00000000 ,   8.00000000 ,   4.82630946 ,   4.82630946 ,   55.7057645
0000001036,   1.00000000 ,   6.00000000 ,   8.00000000 ,   4.82630954 ,   4.82630954 ,   55.7057562
0000001037,   2.00000000 ,   6.00000000 ,   8.00000000 ,   4.82630971 ,   4.82630971 ,   55.7057372
0000001038,   3.00000000 ,   6.00000000 ,   8.00000000 ,   4.82630992 ,   4.82630992 ,   55.7057176
0000001039,   4.00000000 ,   6.00000000 ,   8.00000000 ,   4.82631009 ,   4.82631009 ,   55.7057042
0000001040,   5.00000000 ,   6.00000000 ,   8.00000000 ,   4.82631015 ,   4.82631015 ,   55.7056995
0000001041,   6.00000000 ,   6.00000000 ,   8.00000000 ,   4.82631009 ,   4.82631009 ,   55.7057042
0000001042,   7.00000000 ,   6.00000000 ,   8.00000000 ,   4.82630992 ,   4.82630992 ,   55.7057176
0000001043,   8.00000000 ,   6.00000000 ,   8.00000000 ,   4.82630971 ,   4.82630971 ,   55.7057372
0000001044,   9.00000000 ,   6.00000000 ,   8.00000000 ,   4.82630954 ,   4.82630954 ,   55.7057562
0000001045,   10.0000000 ,   6.00000000 ,   8.00000000 ,   4.82630946 ,   4.82630946 ,   55.7057645
0000001046,   0.00000000 ,   7.00000000 ,   8.00000000 ,   4.62275876 ,   4.62275876 ,   55.0009251
0000001047,   1.00000000 ,   7.00000000 ,   8.00000000 ,   4.62275886 ,   4.62275886 ,   55.0009046
0000001048,   2.00000000 ,   7.00000000 ,   8.00000000 ,   4.62275911 ,   4.62275911 ,   55.0008594
0000001049,   3.00000000 ,   7.00000000 ,   8.00000000 ,   4.62275940 ,   4.62275940 ,   55.0008144
0000001050,   4.00000000 ,   7.00000000 ,   8.00000000 ,   4.62275962 ,   4.62275962 ,   55.0007843
0000001051,   5.00000000 ,   7.00000000 ,   8.00000000 ,   4.62275970 ,   4.62275970 ,   55.0007740
0000001052,   6.00000000 ,   7.00000000 ,   8.00000000 ,   4.62275962 ,   4.62275962 ,   55.0007843
0000001053,   7.00000000 ,   7.00000000 ,   8.00000000 ,   4.62275940 ,   4.62275940 ,   55.0008144
0000001054,   8.00000000 ,   7.00000000 ,   8.00000000 ,   4.62275911 ,   4.62275911 ,   55.0008594
0000001055,   9.00000000 ,   7.00000000 ,   8.00000000 ,   4.62275886 ,   4.62275886 ,   55.0009046
0000001056,   10.0000000 ,   7.00000000 ,   8.00000000 ,   4.62275876 ,   4.62275876 ,   55.0009251
0000001057,   0.00000000 ,   8.00000000 ,   8.00000000 ,   4.41710558 ,   4.41710558 ,   54.3357179
0000001058,   1.00000000 ,   8.00000000 ,   8.00000000 ,   4.41710570 ,   4.41710570 ,   54.3356718
0000001059,   2.00000000 ,   8.00000000 ,   8.00000000 ,   4.41710601 ,   4.41710601 ,   54.3355742
0000001060,   3.00000000 ,   8.00000000 ,   8.00000000 ,   4.41710635 ,   4.41710635 ,   54.3354804
0000001061,   4.00000000 ,   8.00000000 ,   8.00000000 ,   4.41710660 ,   4.41710660 ,   54.3354194
0000001062,   5.00000000 ,   8.00000000 ,   8.00000000 ,   4.41710669 ,   4.41710669 ,   54.3353990
0000001063,   6.00000000 ,   8.00000000 ,   8.00000000 ,   4.41710660 ,   4.41710660 ,   54.3354194
0000001064,   7.00000000 ,   8.00000000 ,   8.00000000 ,   4.41710635 ,   4.41710635 ,   54.3354804
0000001065,   8.00000000 ,   8.00000000 ,   8.00000000 ,   4.41710601 ,   4.41710601 ,   54.3355742
0000001066,   9.00000000 ,   8.00000000 ,   8.00000000 ,   4.41710570 ,   4.41710570 ,   54.3356718
0000001067,   10.0000000 ,   8.00000000 ,   8.00000000 ,   4.41710558 ,   4.41710558 ,   54.3357179
0000001068,   0.00000000 ,   9.00000000 ,   8.00000000 ,   4.20945372 ,   4.20945372 ,   53.7433071
0000001069,   1.00000000 ,   9.00000000 ,   8.00000000 ,   4.20945383 ,   4.20945383 ,   53.7432187
0000001070,   2.00000000 ,   9.00000000 ,   8.00000000 ,   4.20945409 ,   4.20945409 ,   53.7430383
0000001071,   3.00000000 ,   9.00000000 ,   8.00000000 ,   4.20945437 ,   4.20945437 ,   53.7428702
0000001072,   4.00000000 ,   9.00000000 ,   8.00000000 ,   4.20945457 ,   4.20945457 ,   53.7427636
0000001073,   5.00000000 ,   9.00000000 ,   8.00000000 ,   4.20945464 ,   4.20945464 ,   53.7427282
0000001074,   6.00000000 ,   9.00000000 ,   8.00000000 ,   4.20945457 ,   4.20945457 ,   53.7427636
0000001075,   7.00000000 ,   9.00000000 ,   8.00000000 ,   4.20945437 ,   4.20945437 ,   53.7428702
0000001076,   8.00000000 ,   9.00000000 ,   8.00000000 ,   4.20945409 ,   4.20945409 ,   53.7430383
0000001077,   9.00000000 ,   9.00000000 ,   8.00000000 ,   4.20945383 ,   4.20945383 ,   53.7432187
0000001078,   10.0000000 ,   9.00000000 ,   8.00000000 ,   4.20945372 ,   4.20945372 ,   53.7433071
0000001079,   0.00000000 ,   10.0000000 ,   8.00000000 ,   4.00000000 ,   4.00000000 ,   53.5036989
0000001080,   1.00000000 ,   10.0000000 ,   8.00000000 ,   4.00000000 ,   4.00000000 ,   53.5035837
0000001081,   2.00000000 ,   10.0000000 ,   8.00000000 ,   4.00000000 ,   4.00000000 ,   53.5033532
0000001082,   3.00000000 ,   10.0000000 ,   8.00000000 ,   4.00000000 ,   4.00000000 ,   53.5031412
0000001083,   4.00000000 ,   10.0000000 ,   8.00000000 ,   4.00000000 ,   4.00000000 ,   53.5030080
0000001084,   5.00000000 ,   10.0000000 ,   8.00000000 ,   4.00000000 ,   4.00000000 ,   53.5029641
0000001085,   6.00000000 ,   10.0000000 ,   8.00000000 ,   4.00000000 ,   4.00000000 ,   53.5030080
0000001086,   7.00000000 ,   10.0000000 ,   8.00000000 ,   4.00000000 ,   4.00000000 ,   53.5031412
0000001087,   8.00000000 ,   10.0000000 ,   8.00000000 ,   4.00000000 ,   4.00000000 ,   53.5033532
0000001088,   9.00000000 ,   10.0000000 ,   8.00000000 ,   4.00000000 ,   4.00000000 ,   53.5035837
0000001089,   10.0000000 ,   10.0000000 ,   8.00000000 ,   4.00000000 ,   4.00000000 ,   53.5036989
0000001090,   0.00000000 ,   0.00000000 ,   9.00000000 ,   6.00000000 ,   6.00000000 ,   57.7946251
0000001091,   1.00000000 ,   0.00000000 ,   9.00000000 ,   6.00000000 ,   6.00000000 ,   57.7946251
0000001092,   2.00000000 ,   0.00000000 ,   9.00000000 ,   6.00000000 ,   6.00000000 ,   57.7946251
0000001093,   3.00000000 ,   0.00000000 ,   9.00000000 ,   6.00000000 ,   6.00000000 ,   57.7946250
0000001094,   4.00000000 ,   0.00000000 ,   9.00000000 ,   6.00000000 ,   6.00000000 ,   57.7946250
0000001095,   5.00000000 ,   0.00000000 ,   9.00000000 ,   6.00000000 ,   6.00000000 ,   57.7946250
0000001096,   6.00000000 ,   0.00000000 ,   9.00000000 ,   6.00000000 ,   6.00000000 ,   57.7946250
0000001097,   7.00000000 ,   0.00000000 ,   9.00000000 ,   6.00000000 ,   6.00000000 ,   57.7946250
0000001098,   8.00000000 ,   0.00000000 ,   9.00000000 ,   6.00000000 ,   6.00000000 ,   57.7946251
0000001099,   9.00000000 ,   0.00000000 ,   9.00000000 ,   6.00000000 ,   6.00000000 ,   57.7946251
0000001100,   10.0000000 ,   0.00000000 ,   9.00000000 ,   6.00000000 ,   6.00000000 ,   57.7946251
0000001101,   0.00000000 ,   1.00000000 ,   9.00000000 ,   5.81635656 ,   5.81635656 ,   54.9966509
0000001102,   1.00000000 ,   1.00000000 ,   9.00000000 ,   5.81635657 ,   5.81635657 ,   54.9966509
0000001103,   2.00000000 ,   1.00000000 ,   9.00000000 ,   5.81635657 ,   5.81635657 ,   54.9966508
0000001104,   3.00000000 ,   1.00000000 ,   9.00000000 ,   5.81635657 ,   5.81635657 ,   54.9966507
0000001105,   4.00000000 ,   1.00000000 ,   9.00000000 ,   5.81635658 ,   5.81635658 ,   54.9966507
0000001106,   5.00000000 ,   1.00000000 ,   9.00000000 ,   5.81635658 ,   5.81635658 ,   54.9966506
0000001107,   6.00000000 ,   1.00000000 ,   9.00000000 ,   5.81635658 ,   5.81635658 ,   54.9966507
0000001108,   7.00000000 ,   1.00000000 ,   9.00000000 ,   5.81635657 ,   5.81635657 ,   54.9966507
0000001109,   8.00000000 ,   1.00000000 ,   9.00000000 ,   5.81635657 ,   5.81635657 ,   54.9966508
0000001110,   9.00000000 ,   1.00000000 ,   9.00000000 ,   5.81635657 ,   5.81635657 ,   54.9966509
0000001111,   10.0000000 ,   1.00000000 ,   9.00000000 ,   5.81635656 ,   5.81635656 ,   54.9966509
0000001112,   0.00000000 ,   2.00000000 ,   9.00000000 ,   5.62642805 ,   5.62642805 ,   52.7143419
0000001113,   1.00000000 ,   2.00000000 ,   9.00000000 ,   5.62642805 ,   5.62642805 ,   52.7143418
0000001114,   2.00000000 ,   2.00000000 ,   9.00000000 ,   5.62642806 ,   5.62642806 ,   52.7143417
0000001115,   3.00000000 ,   2.00000000 ,   9.00000000 ,   5.62642807 ,   5.62642807 ,   52.7143416
0000001116,   4.00000000 ,   2.00000000 ,   9.00000000 ,   5.62642807 ,   5.62642807 ,   52.7143414
0000001117,   5.00000000 ,   2.00000000 ,   9.00000000 ,   5.62642808 ,   5.62642808 ,   52.7143414
0000001118,   6.00000000 ,   2.00000000 ,   9.00000000 ,   5.62642807 ,   5.62642807 ,   52.7143414
0000001119,   7.00000000 ,   2.00000000 ,   9.00000000 ,   5.62642807 ,   5.62642807 ,   52.7143416
0000001120,   8.00000000 ,   2.00000000 ,   9.00000000 ,   5.62642806 ,   5.62642806 ,   52.7143417
0000001121,   9.00000000 ,   2.00000000 ,   9.00000000 ,   5.62642805 ,   5.62642805 ,   52.7143418
0000001122,   10.0000000 ,   2.00000000 ,   9.00000000 ,   5.62642805 ,   5.62642805 ,   52.7143419
0000001123,   0.00000000 ,   3.00000000 ,   9.00000000 ,   5.43195154 ,   5.43195154 ,   50.8309124
0000001124,   1.00000000 ,   3.00000000 ,   9.00000000 ,   5.43195154 ,   5.43195154 ,   50.8309123
0000001125,   2.00000000 ,   3.00000000 ,   9.00000000 ,   5.43195156 ,   5.43195156 ,   50.8309120
0000001126,   3.00000000 ,   3.00000000 ,   9.00000000 ,   5.43195157 ,   5.43195157 ,   50.8309118
0000001127,   4.00000000 ,   3.00000000 ,   9.00000000 ,   5.43195158 ,   5.43195158 ,   50.8309115
0000001128,   5.00000000 ,   3.00000000 ,   9.00000000 ,   5.43195159 ,   5.43195159 ,   50.8309115
0000001129,   6.00000000 ,   3.00000000 ,   9.00000000 ,   5.43195158 ,   5.43195158 ,   50.8309115
0000001130,   7.00000000 ,   3.00000000 ,   9.00000000 ,   5.43195157 ,   5.43195157 ,   50.8309118
0000001131,   8.00000000 ,   3.00000000 ,   9.00000000 ,   5.43195156 ,   5.43195156 ,   50.8309120
0000001132,   9.00000000 ,   3.00000000 ,   9.00000000 ,   5.43195154 ,   5.43195154 ,   50.8309123
0000001133,   10.0000000 ,   3.00000000 ,   9.00000000 ,   5.43195154 ,   5.43195154 ,   50.8309124
0000001134,   0.00000000 ,   4.00000000 ,   9.00000000 ,   5.23400955 ,   5.23400955 ,   49.2629945
0000001135,   1.00000000 ,   4.00000000 ,   9.00000000 ,   5.23400955 ,   5.23400955 ,   49.2629943
0000001136,   2.00000000 ,   4.00000000 ,   9.00000000 ,   5.23400957 ,   5.23400957 ,   49.2629938
0000001137,   3.00000000 ,   4.00000000 ,   9.00000000 ,   5.23400960 ,   5.23400960 ,   49.2629932
0000001138,   4.00000000 ,   4.00000000 ,   9.00000000 ,   5.23400962 ,   5.23400962 ,   49.2629927
0000001139,   5.00000000 ,   4.00000000 ,   9.00000000 ,   5.23400962 ,   5.23400962 ,   49.2629926
0000001140,   6.00000000 ,   4.00000000 ,   9.00000000 ,   5.23400962 ,   5.23400962 ,   49.2629927
0000001141,   7.00000000 ,   4.00000000 ,   9.00000000 ,   5.23400960 ,   5.23400960 ,   49.2629932
0000001142,   8.00000000 ,   4.00000000 ,   9.00000000 ,   5.23400957 ,   5.23400957 ,   49.2629938
0000001143,   9.00000000 ,   4.00000000 ,   9.00000000 ,   5.23400955 ,   5.23400955 ,   49.2629943
0000001144,   10.0000000 ,   4.00000000 ,   9.00000000 ,   5.23400955 ,   5.23400955 ,   49.2629945
0000001145,   0.00000000 ,   5.00000000 ,   9.00000000 ,   5.03330503 ,   5.03330503 ,   47.9480553
0000001146,   1.00000000 ,   5.00000000 ,   9.00000000 ,   5.03330504 ,   5.03330504 ,   47.9480548
0000001147,   2.00000000 ,   5.00000000 ,   9.00000000 ,   5.03330507 ,   5.03330507 ,   47.9480535
0000001148,   3.00000000 ,   5.00000000 ,   9.00000000 ,   5.03330511 ,   5.03330511 ,   47.9480522
0000001149,   4.00000000 ,   5.00000000 ,   9.00000000 ,   5.03330514 ,   5.03330514 ,   47.9480511
0000001150,   5.00000000 ,   5.00000000 ,   9.00000000 ,   5.03330515 ,   5.03330515 ,   47.9480508
0000001151,   6.00000000 ,   5.00000000 ,   9.00000000 ,   5.03330514 ,   5.03330514 ,   47.9480511
0000001152,   7.00000000 ,   5.00000000 ,   9.00000000 ,   5.03330511 ,   5.03330511 ,   47.9480522
0000001153,   8.00000000 ,   5.00000000 ,   9.00000000 ,   5.03330507 ,   5.03330507 ,   47.9480535
0000001154,   9.00000000 ,   5.00000000 ,   9.00000000 ,   5.03330504 ,   5.03330504 ,   47.9480548
0000001155,   10.0000000 ,   5.00000000 ,   9.00000000 ,   5.03330503 ,   5.03330503 ,   47.9480553
0000001156,   0.00000000 ,   6.00000000 ,   9.00000000 ,   4.83030914 ,   4.83030914 ,   46.8379089
0000001157,   1.00000000 ,   6.00000000 ,   9.00000000 ,   4.83030915 ,   4.83030915 ,   46.8379075
0000001158,   2.00000000 ,   6.00000000 ,   9.00000000 ,   4.83030920 ,   4.83030920 ,   46.8379045
0000001159,   3.00000000 ,   6.00000000 ,   9.00000000 ,   4.83030925 ,   4.83030925 ,   46.8379012
0000001160,   4.00000000 ,   6.00000000 ,   9.00000000 ,   4.83030929 ,   4.83030929 ,   46.8378989
0000001161,   5.00000000 ,   6.00000000 ,   9.00000000 ,   4.83030930 ,   4.83030930 ,   46.8378981
0000001162,   6.00000000 ,   6.00000000 ,   9.00000000 ,   4.83030929 ,   4.83030929 ,   46.8378989
0000001163,   7.00000000 ,   6.00000000 ,   9.00000000 ,   4.83030925 ,   4.83030925 ,   46.8379012
0000001164,   8.00000000 ,   6.00000000 ,   9.00000000 ,   4.83030920 ,   4.83030920 ,   46.8379045
0000001165,   9.00000000 ,   6.00000000 ,   9.00000000 ,   4.83030915 ,   4.83030915 ,   46.8379075
0000001166,   10.0000000 ,   6.00000000 ,   9.00000000 ,   4.83030914 ,   4.83030914 ,   46.8379089
0000001167,   0.00000000 ,   7.00000000 ,   9.00000000 ,   4.62533829 ,   4.62533829 ,   45.8951059
0000001168,   1.00000000 ,   7.00000000 ,   9.00000000 ,   4.62533831 ,   4.62533831 ,   45.8951027
0000001169,   2.00000000 ,   7.00000000 ,   9.00000000 ,   4.62533837 ,   4.62533837 ,   45.8950956
0000001170,   3.00000000 ,   7.00000000 ,   9.00000000 ,   4.62533843 ,   4.62533843 ,   45.8950882
0000001171,   4.00000000 ,   7.00000000 ,   9.00000000 ,   4.62533849 ,   4.62533849 ,   45.8950831
0000001172,   5.00000000 ,   7.00000000 ,   9.00000000 ,   4.62533850 ,   4.62533850 ,   45.8950814
0000001173,   6.00000000 ,   7.00000000 ,   9.00000000 ,   4.62533849 ,   4.62533849 ,   45.8950831
0000001174,   7.00000000 ,   7.00000000 ,   9.00000000 ,   4.62533843 ,   4.62533843 ,   45.8950882
0000001175,   8.00000000 ,   7.00000000 ,   9.00000000 ,   4.62533837 ,   4.62533837 ,   45.8950956
0000001176,   9.00000000 ,   7.00000000 ,   9.00000000 ,   4.62533831 ,   4.62533831 ,   45.8951027
0000001177,   10.0000000 ,   7.00000000 ,   9.00000000 ,   4.62533829 ,   4.62533829 ,   45.8951059
0000001178,   0.00000000 ,   8.00000000 ,   9.00000000 ,   4.41858668 ,   4.41858668 ,   45.0922507
0000001179,   1.00000000 ,   8.00000000 ,   9.00000000 ,   4.41858670 ,   4.41858670 ,   45.0922437
0000001180,   2.00000000 ,   8.00000000 ,   9.00000000 ,   4.41858677 ,   4.41858677 ,   45.0922284
0000001181,   3.00000000 ,   8.00000000 ,   9.00000000 ,   4.41858684 ,   4.41858684 ,   45.0922130
0000001182,   4.00000000 ,   8.00000000 ,   9.00000000 ,   4.41858690 ,   4.41858690 ,   45.0922027
0000001183,   5.00000000 ,   8.00000000 ,   9.00000000 ,   4.41858692 ,   4.41858692 ,   45.0921992
0000001184,   6.00000000 ,   8.00000000 ,   9.00000000 ,   4.41858690 ,   4.41858690 ,   45.0922027
0000001185,   7.00000000 ,   8.00000000 ,   9.00000000 ,   4.41858684 ,   4.41858684 ,   45.0922130
0000001186,   8.00000000 ,   8.00000000 ,   9.00000000 ,   4.41858677 ,   4.41858677 ,   45.0922284
0000001187,   9.00000000 ,   8.00000000 ,   9.00000000 ,   4.41858670 ,   4.41858670 ,   45.0922437
0000001188,   10.0000000 ,   8.00000000 ,   9.00000000 ,   4.41858668 ,   4.41858668 ,   45.0922507
0000001189,   0.00000000 ,   9.00000000 ,   9.00000000 ,   4.21012660 ,   4.21012660 ,   44.4256574
0000001190,   1.00000000 ,   9.00000000 ,   9.00000000 ,   4.21012662 ,   4.21012662 ,   44.4256443
0000001191,   2.00000000 ,   9.00000000 ,   9.00000000 ,   4.21012668 ,   4.21012668 ,   44.4256161
0000001192,   3.00000000 ,   9.00000000 ,   9.00000000 ,   4.21012673 ,   4.21012673 ,   44.4255886
0000001193,   4.00000000 ,   9.00000000 ,   9.00000000 ,   4.21012678 ,   4.21012678 ,   44.4255704
0000001194,   5.00000000 ,   9.00000000 ,   9.00000000 ,   4.21012679 ,   4.21012679 ,   44.4255643
0000001195,   6.00000000 ,   9.00000000 ,   9.00000000 ,   4.21012678 ,   4.21012678 ,   44.4255704
0000001196,   7.00000000 ,   9.00000000 ,   9.00000000 ,   4.21012673 ,   4.21012673 ,   44.4255886
0000001197,   8.00000000 ,   9.00000000 ,   9.00000000 ,   4.21012668 ,   4.21012668 ,   44.4256161
0000001198,   9.00000000 ,   9.00000000 ,   9.00000000 ,   4.21012662 ,   4.21012662 ,   44.4256443
0000001199,   10.0000000 ,   9.00000000 ,   9.00000000 ,   4.21012660 ,   4.21012660 ,   44.4256574
0000001200,   0.00000000 ,   10.0000000 ,   9.00000000 ,   4.00000000 ,   4.00000000 ,   44.1568206
0000001201,   1.00000000 ,   10.0000000 ,   9.00000000 ,   4.00000000 ,   4.00000000 ,   44.1568037
0000001202,   2.00000000 ,   10.0000000 ,   9.00000000 ,   4.00000000 ,   4.00000000 ,   44.1567677
0000001203,   3.00000000 ,   10.0000000 ,   9.00000000 ,   4.00000000 ,   4.00000000 ,   44.1567329
0000001204,   4.00000000 ,   10.0000000 ,   9.00000000 ,   4.00000000 ,   4.00000000 ,   44.1567102
0000001205,   5.00000000 ,   10.0000000 ,   9.00000000 ,   4.00000000 ,   4.00000000 ,   44.1567025
0000001206,   6.00000000 ,   10.0000000 ,   9.00000000 ,   4.00000000 ,   4.00000000 ,   44.1567102
0000001207,   7.00000000 ,   10.0000000 ,   9.00000000 ,   4.00000000 ,   4.00000000 ,   44.1567329
0000001208,   8.00000000 ,   10.0000000 ,   9.00000000 ,   4.00000000 ,   4.00000000 ,   44.1567677
0000001209,   9.00000000 ,   10.0000000 ,   9.00000000 ,   4.00000000 ,   4.00000000 ,   44.1568037
0000001210,   10.0000000 ,   10.0000000 ,   9.00000000 ,   4.00000000 ,   4.00000000 ,   44.1568206
0000001211,   0.00000000 ,   0.00000000 ,   10.0000000 ,   6.00000000 ,   6.00000000 ,   30.0000000
0000001212,   1.00000000 ,   0.00000000 ,   10.0000000 ,   6.00000000 ,   6.00000000 ,   30.0000000
0000001213,   2.00000000 ,   0.00000000 ,   10.0000000 ,   6.00000000 ,   6.00000000 ,   30.0000000
0000001214,   3.00000000 ,   0.00000000 ,   10.0000000 ,   6.00000000 ,   6.00000000 ,   30.0000000
0000001215,   4.00000000 ,   0.00000000 ,   10.0000000 ,   6.00000000 ,   6.00000000 ,   30.0000000
0000001216,   5.00000000 ,   0.00000000 ,   10.0000000 ,   6.00000000 ,   6.00000000 ,   30.0000000
0000001217,   6.00000000 ,   0.00000000 ,   10.0000000 ,   6.00000000 ,   6.00000000 ,   30.0000000
0000001218,   7.00000000 ,   0.00000000 ,   10.0000000 ,   6.00000000 ,   6.00000000 ,   30.0000000
0000001219,   8.00000000 ,   0.00000000 ,   10.0000000 ,   6.00000000 ,   6.00000000 ,   30.0000000
0000001220,   9.00000000 ,   0.00000000 ,   10.0000000 ,   6.00000000 ,   6.00000000 ,   30.0000000
0000001221,   10.0000000 ,   0.00000000 ,   10.0000000 ,   6.00000000 ,   6.00000000 ,   30.0000000
0000001222,   0.00000000 ,   1.00000000 ,   10.0000000 ,   5.80584458 ,   5.80584458 ,   30.0000000
0000001223,   1.00000000 ,   1.00000000 ,   10.0000000 ,   5.80584458 ,   5.80584458 ,   30.0000000
0000001224,   2.00000000 ,   1.00000000 ,   10.0000000 ,   5.80584458 ,   5.80584458 ,   30.0000000
0000001225,   3.00000000 ,   1.00000000 ,   10.0000000 ,   5.80584458 ,   5.80584458 ,   30.0000000
0000001226,   4.00000000 ,   1.00000000 ,   10.0000000 ,   5.80584459 ,   5.80584459 ,   30.0000000
0000001227,   5.00000000 ,   1.00000000 ,   10.0000000 ,   5.80584459 ,   5.80584459 ,   30.0000000
0000001228,   6.00000000 ,   1.00000000 ,   10.0000000 ,   5.80584459 ,   5.80584459 ,   30.0000000
0000001229,   7.00000000 ,   1.00000000 ,   10.0000000 ,   5.80584458 ,   5.80584458 ,   30.0000000
0000001230,   8.00000000 ,   1.00000000 ,   10.0000000 ,   5.80584458 ,   5.80584458 ,   30.0000000
0000001231,   9.00000000 ,   1.00000000 ,   10.0000000 ,   5.80584458 ,   5.80584458 ,   30.0000000
0000001232,   10.0000000 ,   1.00000000 ,   10.0000000 ,   5.80584458 ,   5.80584458 ,   30.0000000
0000001233,   0.00000000 ,   2.00000000 ,   10.0000000 ,   5.61142625 ,   5.61142625 ,   30.0000000
0000001234,   1.00000000 ,   2.00000000 ,   10.0000000 ,   5.61142625 ,   5.61142625 ,   30.0000000
0000001235,   2.00000000 ,   2.00000000 ,   10.0000000 ,   5.61142625 ,   5.61142625 ,   30.0000000
0000001236,   3.00000000 ,   2.00000000 ,   10.0000000 ,   5.61142626 ,   5.61142626 ,   30.0000000
0000001237,   4.00000000 ,   2.00000000 ,   10.0000000 ,   5.61142626 ,   5.61142626 ,   30.0000000
0000001238,   5.00000000 ,   2.00000000 ,   10.0000000 ,   5.61142626 ,   5.61142626 ,   30.0000000
0000001239,   6.00000000 ,   2.00000000 ,   10.0000000 ,   5.61142626 ,   5.61142626 ,   30.0000000
0000001240,   7.00000000 ,   2.00000000 ,   10.0000000 ,   5.61142626 ,   5.61142626 ,   30.0000000
0000001241,   8.00000000 ,   2.00000000 ,   10.0000000 ,   5.61142625 ,   5.61142625 ,   30.0000000
0000001242,   9.00000000 ,   2.00000000 ,   10.0000000 ,   5.61142625 ,   5.61142625 ,   30.0000000
0000001243,   10.0000000 ,   2.00000000 ,   10.0000000 ,   5.61142625 ,   5.61142625 ,   30.0000000
0000001244,   0.00000000 ,   3.00000000 ,   10.0000000 ,   5.41539727 ,   5.41539727 ,   30.0000000
0000001245,   1.00000000 ,   3.00000000 ,   10.0000000 ,   5.41539727 ,   5.41539727 ,   30.0000000
0000001246,   2.00000000 ,   3.00000000 ,   10.0000000 ,   5.41539728 ,   5.41539728 ,   30.0000000
0000001247,   3.00000000 ,   3.00000000 ,   10.0000000 ,   5.41539729 ,   5.41539729 ,   30.0000000
0000001248,   4.00000000 ,   3.00000000 ,   10.0000000 ,   5.41539729 ,   5.41539729 ,   30.0000000
0000001249,   5.00000000 ,   3.00000000 ,   10.0000000 ,   5.41539729 ,   5.41539729 ,   30.0000000
0000001250,   6.00000000 ,   3.00000000 ,   10.0000000 ,   5.41539729 ,   5.41539729 ,   30.0000000
0000001251,   7.00000000 ,   3.00000000 ,   10.0000000 ,   5.41539729 ,   5.41539729 ,   30.0000000
0000001252,   8.00000000 ,   3.00000000 ,   10.0000000 ,   5.41539728 ,   5.41539728 ,   30.0000000
0000001253,   9.00000000 ,   3.00000000 ,   10.0000000 ,   5.41539727 ,   5.41539727 ,   30.0000000
0000001254,   10.0000000 ,   3.00000000 ,   10.0000000 ,   5.41539727 ,   5.41539727 ,   30.0000000
0000001255,   0.00000000 ,   4.00000000 ,   10.0000000 ,   5.21734988 ,   5.21734988 ,   30.0000000
0000001256,   1.00000000 ,   4.00000000 ,   10.0000000 ,   5.21734989 ,   5.21734989 ,   30.0000000
0000001257,   2.00000000 ,   4.00000000 ,   10.0000000 ,   5.21734989 ,   5.21734989 ,   30.0000000
0000001258,   3.00000000 ,   4.00000000 ,   10.0000000 ,   5.21734991 ,   5.21734991 ,   30.0000000
0000001259,   4.00000000 ,   4.00000000 ,   10.0000000 ,   5.21734991 ,   5.21734991 ,   30.0000000
0000001260,   5.00000000 ,   4.00000000 ,   10.0000000 ,   5.21734992 ,   5.21734992 ,   30.0000000
0000001261,   6.00000000 ,   4.00000000 ,   10.0000000 ,   5.21734991 ,   5.21734991 ,   30.0000000
0000001262,   7.00000000 ,   4.00000000 ,   10.0000000 ,   5.21734991 ,   5.21734991 ,   30.0000000
0000001263,   8.00000000 ,   4.00000000 ,   10.0000000 ,   5.21734989 ,   5.21734989 ,   30.0000000
0000001264,   9.00000000 ,   4.00000000 ,   10.0000000 ,   5.21734989 ,   5.21734989 ,   30.0000000
0000001265,   10.0000000 ,   4.00000000 ,   10.0000000 ,   5.21734988 ,   5.21734988 ,   30.0000000
0000001266,   0.00000000 ,   5.00000000 ,   10.0000000 ,   5.01730447 ,   5.01730447 ,   30.0000000
0000001267,   1.00000000 ,   5.00000000 ,   10.0000000 ,   5.01730448 ,   5.01730448 ,   30.0000000
0000001268,   2.00000000 ,   5.00000000 ,   10.0000000 ,   5.01730449 ,   5.01730449 ,   30.0000000
0000001269,   3.00000000 ,   5.00000000 ,   10.0000000 ,   5.01730450 ,   5.01730450 ,   30.0000000
0000001270,   4.00000000 ,   5.00000000 ,   10.0000000 ,   5.01730452 ,   5.01730452 ,   30.0000000
0000001271,   5.00000000 ,   5.00000000 ,   10.0000000 ,   5.01730452 ,   5.01730452 ,   30.0000000
0000001272,   6.00000000 ,   5.00000000 ,   10.0000000 ,   5.01730452 ,   5.01730452 ,   30.0000000
0000001273,   7.00000000 ,   5.00000000 ,   10.0000000 ,   5.01730450 ,   5.01730450 ,   30.0000000
0000001274,   8.00000000 ,   5.00000000 ,   10.0000000 ,   5.01730449 ,   5.01730449 ,   30.0000000
0000001275,   9.00000000 ,   5.00000000 ,   10.0000000 ,   5.01730448 ,   5.01730448 ,   30.0000000
0000001276,   10.0000000 ,   5.00000000 ,   10.0000000 ,   5.01730447 ,   5.01730447 ,   30.0000000
0000001277,   0.00000000 ,   6.00000000 ,   10.0000000 ,   4.81548796 ,   4.81548796 ,   30.0000000
0000001278,   1.00000000 ,   6.00000000 ,   10.0000000 ,   4.81548797 ,   4.81548797 ,   30.0000000
0000001279,   2.00000000 ,   6.00000000 ,   10.0000000 ,   4.81548798 ,   4.81548798 ,   30.0000000
0000001280,   3.00000000 ,   6.00000000 ,   10.0000000 ,   4.81548800 ,   4.81548800 ,   30.0000000
0000001281,   4.00000000 ,   6.00000000 ,   10.0000000 ,   4.81548802 ,   4.81548802 ,   30.0000000
0000001282,   5.00000000 ,   6.00000000 ,   10.0000000 ,   4.81548802 ,   4.81548802 ,   30.0000000
0000001283,   6.00000000 ,   6.00000000 ,   10.0000000 ,   4.81548802 ,   4.81548802 ,   30.0000000
0000001284,   7.00000000 ,   6.00000000 ,   10.0000000 ,   4.81548800 ,   4.81548800 ,   30.0000000
0000001285,   8.00000000 ,   6.00000000 ,   10.0000000 ,   4.81548798 ,   4.81548798 ,   30.0000000
0000001286,   9.00000000 ,   6.00000000 ,   10.0000000 ,   4.81548797 ,   4.81548797 ,   30.0000000
0000001287,   10.0000000 ,   6.00000000 ,   10.0000000 ,   4.81548796 ,   4.81548796 ,   30.0000000
0000001288,   0.00000000 ,   7.00000000 ,   10.0000000 ,   4.61225633 ,   4.61225633 ,   30.0000000
0000001289,   1.00000000 ,   7.00000000 ,   10.0000000 ,   4.61225634 ,   4.61225634 ,   30.0000000
0000001290,   2.00000000 ,   7.00000000 ,   10.0000000 ,   4.61225636 ,   4.61225636 ,   30.0000000
0000001291,   3.00000000 ,   7.00000000 ,   10.0000000 ,   4.61225638 ,   4.61225638 ,   30.0000000
0000001292,   4.00000000 ,   7.00000000 ,   10.0000000 ,   4.61225639 ,   4.61225639 ,   30.0000000
0000001293,   5.00000000 ,   7.00000000 ,   10.0000000 ,   4.61225640 ,   4.61225640 ,   30.0000000
0000001294,   6.00000000 ,   7.00000000 ,   10.0000000 ,   4.61225639 ,   4.61225639 ,   30.0000000
0000001295,   7.00000000 ,   7.00000000 ,   10.0000000 ,   4.61225638 ,   4.61225638 ,   30.0000000
0000001296,   8.00000000 ,   7.00000000 ,   10.0000000 ,   4.61225636 ,   4.61225636 ,   30.0000000
0000001297,   9.00000000 ,   7.00000000 ,   10.0000000 ,   4.61225634 ,   4.61225634 ,   30.0000000
0000001298,   10.0000000 ,   7.00000000 ,   10.0000000 ,   4.61225633 ,   4.61225633 ,   30.0000000
0000001299,   0.00000000 ,   8.00000000 ,   10.0000000 ,   4.40810147 ,   4.40810147 ,   30.0000000
0000001300,   1.00000000 ,   8.00000000 ,   10.0000000 ,   4.40810148 ,   4.40810148 ,   30.0000000
0000001301,   2.00000000 ,   8.00000000 ,   10.0000000 ,   4.40810150 ,   4.40810150 ,   30.0000000
0000001302,   3.00000000 ,   8.00000000 ,   10.0000000 ,   4.40810152 ,   4.40810152 ,   30.0000000
0000001303,   4.00000000 ,   8.00000000 ,   10.0000000 ,   4.40810153 ,   4.40810153 ,   30.0000000
0000001304,   5.00000000 ,   8.00000000 ,   10.0000000 ,   4.40810154 ,   4.40810154 ,   30.0000000
0000001305,   6.00000000 ,   8.00000000 ,   10.0000000 ,   4.40810153 ,   4.40810153 ,   30.0000000
0000001306,   7.00000000 ,   8.00000000 ,   10.0000000 ,   4.40810152 ,   4.40810152 ,   30.0000000
0000001307,   8.00000000 ,   8.00000000 ,   10.0000000 ,   4.40810150 ,   4.40810150 ,   30.0000000
0000001308,   9.00000000 ,   8.00000000 ,   10.0000000 ,   4.40810148 ,   4.40810148 ,   30.0000000
0000001309,   10.0000000 ,   8.00000000 ,   10.0000000 ,   4.40810147 ,   4.40810147 ,   30.0000000
0000001310,   0.00000000 ,   9.00000000 ,   10.0000000 ,   4.20372758 ,   4.20372758 ,   30.0000000
0000001311,   1.00000000 ,   9.00000000 ,   10.0000000 ,   4.20372759 ,   4.20372759 ,   30.0000000
0000001312,   2.00000000 ,   9.00000000 ,   10.0000000 ,   4.20372760 ,   4.20372760 ,   30.0000000
0000001313,   3.00000000 ,   9.00000000 ,   10.0000000 ,   4.20372761 ,   4.20372761 ,   30.0000000
0000001314,   4.00000000 ,   9.00000000 ,   10.0000000 ,   4.20372762 ,   4.20372762 ,   30.0000000
0000001315,   5.00000000 ,   9.00000000 ,   10.0000000 ,   4.20372762 ,   4.20372762 ,   30.0000000
0000001316,   6.00000000 ,   9.00000000 ,   10.0000000 ,   4.20372762 ,   4.20372762 ,   30.0000000
0000001317,   7.00000000 ,   9.00000000 ,   10.0000000 ,   4.20372761 ,   4.20372761 ,   30.0000000
0000001318,   8.00000000 ,   9.00000000 ,   10.0000000 ,   4.20372760 ,   4.20372760 ,   30.0000000
0000001319,   9.00000000 ,   9.00000000 ,   10.0000000 ,   4.20372759 ,   4.20372759 ,   30.0000000
0000001320,   10.0000000 ,   9.00000000 ,   10.0000000 ,   4.20372758 ,   4.20372758 ,   30.0000000
0000001321,   0.00000000 ,   10.0000000 ,   10.0000000 ,   4.00000000 ,   4.00000000 ,   30.0000000
0000001322,   1.00000000 ,   10.0000000 ,   10.0000000 ,   4.00000000 ,   4.00000000 ,   30.0000000
0000001323,   2.00000000 ,   10.0000000 ,   10.0000000 ,   4.00000000 ,   4.00000000 ,   30.0000000
0000001324,   3.00000000 ,   10.0000000 ,   10.0000000 ,   4.00000000 ,   4.00000000 ,   30.0000000
0000001325,   4.00000000 ,   10.0000000 ,   10.0000000 ,   4.00000000 ,   4.00000000 ,   30.0000000
0000001326,   5.00000000 ,   10.0000000 ,   10.0000000 ,   4.00000000 ,   4.00000000 ,   30.0000000
0000001327,   6.00000000 ,   10.0000000 ,   10.0000000 ,   4.00000000 ,   4.00000000 ,   30.0000000
0000001328,   7.00000000 ,   10.0000000 ,   10.0000000 ,   4.00000000 ,   4.00000000 ,   30.0000000
0000001329,   8.00000000 ,   10.0000000 ,   10.0000000 ,   4.00000000 ,   4.00000000 ,   30.0000000
0000001330,   9.00000000 ,   10.0000000 ,   10.0000000 ,   4.00000000 ,   4.00000000 ,   30.0000000
0000001331,   10.0000000 ,   10.0000000 ,   10.0000000 ,   4.00000000 ,   4.00000000 ,   30.0000000
