node, X coordinate (m), Y coordinate (m), Z coordinate (m), Liquid Pressure (MPa), Vapor Pressure (MPa), Temperature (deg C)
0000000001,   0.00000000 ,   0.00000000 ,   0.00000000 ,   6.00000000 ,   6.00000000 ,   80.0000000
0000000002,   1.00000000 ,   0.00000000 ,   0.00000000 ,   6.00000000 ,   6.00000000 ,   80.0000000
0000000003,   2.00000000 ,   0.00000000 ,   0.00000000 ,   6.00000000 ,   6.00000000 ,   80.0000000
0000000004,   3.00000000 ,   0.00000000 ,   0.00000000 ,   6.00000000 ,   6.00000000 ,   80.0000000
0000000005,   4.00000000 ,   0.00000000 ,   0.00000000 ,   6.00000000 ,   6.00000000 ,   80.0000000
0000000006,   5.00000000 ,   0.00000000 ,   0.00000000 ,   6.00000000 ,   6.00000000 ,   80.0000000
0000000007,   6.00000000 ,   0.00000000 ,   0.00000000 ,   6.00000000 ,   6.00000000 ,   80.0000000
0000000008,   7.00000000 ,   0.00000000 ,   0.00000000 ,   6.00000000 ,   6.00000000 ,   80.0000000
0000000009,   8.00000000 ,   0.00000000 ,   0.00000000 ,   6.00000000 ,   6.00000000 ,   80.0000000
0000000010,   9.00000000 ,   0.00000000 ,   0.00000000 ,   6.00000000 ,   6.00000000 ,   80.0000000
0000000011,   10.0000000 ,   0.00000000 ,   0.00000000 ,   6.00000000 ,   6.00000000 ,   80.0000000
0000000012,   0.00000000 ,   1.00000000 ,   0.00000000 ,   5.80139509 ,   5.80139509 ,   80.0000000
0000000013,   1.00000000 ,   1.00000000 ,   0.00000000 ,   5.80139528 ,   5.80139528 ,   80.0000000
0000000014,   2.00000000 ,   1.00000000 ,   0.00000000 ,   5.80139575 ,   5.80139575 ,   80.0000000
0000000015,   3.00000000 ,   1.00000000 ,   0.00000000 ,   5.80139634 ,   5.80139634 ,   80.0000000
0000000016,   4.00000000 ,   1.00000000 ,   0.00000000 ,   5.80139680 ,   5.80139680 ,   80.0000000
0000000017,   5.00000000 ,   1.00000000 ,   0.00000000 ,   5.80139697 ,   5.80139697 ,   80.0000000
0000000018,   6.00000000 ,   1.00000000 ,   0.00000000 ,   5.80139680 ,   5.80139680 ,   80.0000000
0000000019,   7.00000000 ,   1.00000000 ,   0.00000000 ,   5.80139634 ,   5.80139634 ,   80.0000000
0000000020,   8.00000000 ,   1.00000000 ,   0.00000000 ,   5.80139575 ,   5.80139575 ,   80.0000000
0000000021,   9.00000000 ,   1.00000000 ,   0.00000000 ,   5.80139528 ,   5.80139528 ,   80.0000000
0000000022,   10.0000000 ,   1.00000000 ,   0.00000000 ,   5.80139509 ,   5.80139509 ,   80.0000000
0000000023,   0.00000000 ,   2.00000000 ,   0.00000000 ,   5.60241479 ,   5.60241479 ,   80.0000000
0000000024,   1.00000000 ,   2.00000000 ,   0.00000000 ,   5.60241522 ,   5.60241522 ,   80.0000000
0000000025,   2.00000000 ,   2.00000000 ,   0.00000000 ,   5.60241632 ,   5.60241632 ,   80.0000000
0000000026,   3.00000000 ,   2.00000000 ,   0.00000000 ,   5.60241765 ,   5.60241765 ,   80.0000000
0000000027,   4.00000000 ,   2.00000000 ,   0.00000000 ,   5.60241871 ,   5.60241871 ,   80.0000000
0000000028,   5.00000000 ,   2.00000000 ,   0.00000000 ,   5.60241910 ,   5.60241910 ,   80.0000000
0000000029,   6.00000000 ,   2.00000000 ,   0.00000000 ,   5.60241871 ,   5.60241871 ,   80.0000000
0000000030,   7.00000000 ,   2.00000000 ,   0.00000000 ,   5.60241765 ,   5.60241765 ,   80.0000000
0000000031,   8.00000000 ,   2.00000000 ,   0.00000000 ,   5.60241632 ,   5.60241632 ,   80.0000000
0000000032,   9.00000000 ,   2.00000000 ,   0.00000000 ,   5.60241522 ,   5.60241522 ,   80.0000000
0000000033,   10.0000000 ,   2.00000000 ,   0.00000000 ,   5.60241479 ,   5.60241479 ,   80.0000000
0000000034,   0.00000000 ,   3.00000000 ,   0.00000000 ,   5.40334992 ,   5.40334992 ,   80.0000000
0000000035,   1.00000000 ,   3.00000000 ,   0.00000000 ,   5.40335072 ,   5.40335072 ,   80.0000000
0000000036,   2.00000000 ,   3.00000000 ,   0.00000000 ,   5.40335278 ,   5.40335278 ,   80.0000000
0000000037,   3.00000000 ,   3.00000000 ,   0.00000000 ,   5.40335524 ,   5.40335524 ,   80.0000000
0000000038,   4.00000000 ,   3.00000000 ,   0.00000000 ,   5.40335715 ,   5.40335715 ,   80.0000000
0000000039,   5.00000000 ,   3.00000000 ,   0.00000000 ,   5.40335787 ,   5.40335787 ,   80.0000000
0000000040,   6.00000000 ,   3.00000000 ,   0.00000000 ,   5.40335715 ,   5.40335715 ,   80.0000000
0000000041,   7.00000000 ,   3.00000000 ,   0.00000000 ,   5.40335524 ,   5.40335524 ,   80.0000000
0000000042,   8.00000000 ,   3.00000000 ,   0.00000000 ,   5.40335278 ,   5.40335278 ,   80.0000000
0000000043,   9.00000000 ,   3.00000000 ,   0.00000000 ,   5.40335072 ,   5.40335072 ,   80.0000000
0000000044,   10.0000000 ,   3.00000000 ,   0.00000000 ,   5.40334992 ,   5.40334992 ,   80.0000000
0000000045,   0.00000000 ,   4.00000000 ,   0.00000000 ,   5.20418065 ,   5.20418065 ,   80.0000000
0000000046,   1.00000000 ,   4.00000000 ,   0.00000000 ,   5.20418209 ,   5.20418209 ,   80.0000000
0000000047,   2.00000000 ,   4.00000000 ,   0.00000000 ,   5.20418569 ,   5.20418569 ,   80.0000000
0000000048,   3.00000000 ,   4.00000000 ,   0.00000000 ,   5.20418989 ,   5.20418989 ,   80.0000000
0000000049,   4.00000000 ,   4.00000000 ,   0.00000000 ,   5.20419311 ,   5.20419311 ,   80.0000000
0000000050,   5.00000000 ,   4.00000000 ,   0.00000000 ,   5.20419431 ,   5.20419431 ,   80.0000000
0000000051,   6.00000000 ,   4.00000000 ,   0.00000000 ,   5.20419311 ,   5.20419311 ,   80.0000000
0000000052,   7.00000000 ,   4.00000000 ,   0.00000000 ,   5.20418989 ,   5.20418989 ,   80.0000000
0000000053,   8.00000000 ,   4.00000000 ,   0.00000000 ,   5.20418569 ,   5.20418569 ,   80.0000000
0000000054,   9.00000000 ,   4.00000000 ,   0.00000000 ,   5.20418209 ,   5.20418209 ,   80.0000000
0000000055,   10.0000000 ,   4.00000000 ,   0.00000000 ,   5.20418065 ,   5.20418065 ,   80.0000000
0000000056,   0.00000000 ,   5.00000000 ,   0.00000000 ,   5.00480551 ,   5.00480551 ,   80.0000000
0000000057,   1.00000000 ,   5.00000000 ,   0.00000000 ,   5.00480802 ,   5.00480802 ,   80.0000000
0000000058,   2.00000000 ,   5.00000000 ,   0.00000000 ,   5.00481410 ,   5.00481410 ,   80.0000000
0000000059,   3.00000000 ,   5.00000000 ,   0.00000000 ,   5.00482094 ,   5.00482094 ,   80.0000000
0000000060,   4.00000000 ,   5.00000000 ,   0.00000000 ,   5.00482605 ,   5.00482605 ,   80.0000000
0000000061,   5.00000000 ,   5.00000000 ,   0.00000000 ,   5.00482792 ,   5.00482792 ,   80.0000000
0000000062,   6.00000000 ,   5.00000000 ,   0.00000000 ,   5.00482605 ,   5.00482605 ,   80.0000000
0000000063,   7.00000000 ,   5.00000000 ,   0.00000000 ,   5.00482094 ,   5.00482094 ,   80.0000000
0000000064,   8.00000000 ,   5.00000000 ,   0.00000000 ,   5.00481410 ,   5.00481410 ,   80.0000000
0000000065,   9.00000000 ,   5.00000000 ,   0.00000000 ,   5.00480802 ,   5.00480802 ,   80.0000000
0000000066,   10.0000000 ,   5.00000000 ,   0.00000000 ,   5.00480551 ,   5.00480551 ,   80.0000000
0000000067,   0.00000000 ,   6.00000000 ,   0.00000000 ,   4.80510747 ,   4.80510747 ,   80.0000000
0000000068,   1.00000000 ,   6.00000000 ,   0.00000000 ,   4.80511179 ,   4.80511179 ,   80.0000000
0000000069,   2.00000000 ,   6.00000000 ,   0.00000000 ,   4.80512166 ,   4.80512166 ,   80.0000000
0000000070,   3.00000000 ,   6.00000000 ,   0.00000000 ,   4.80513219 ,   4.80513219 ,   80.0000000
0000000071,   4.00000000 ,   6.00000000 ,   0.00000000 ,   4.80513976 ,   4.80513976 ,   80.0000000
0000000072,   5.00000000 ,   6.00000000 ,   0.00000000 ,   4.80514247 ,   4.80514247 ,   80.0000000
0000000073,   6.00000000 ,   6.00000000 ,   0.00000000 ,   4.80513976 ,   4.80513976 ,   80.0000000
0000000074,   7.00000000 ,   6.00000000 ,   0.00000000 ,   4.80513219 ,   4.80513219 ,   80.0000000
0000000075,   8.00000000 ,   6.00000000 ,   0.00000000 ,   4.80512166 ,   4.80512166 ,   80.0000000
0000000076,   9.00000000 ,   6.00000000 ,   0.00000000 ,   4.80511179 ,   4.80511179 ,   80.0000000
0000000077,   10.0000000 ,   6.00000000 ,   0.00000000 ,   4.80510747 ,   4.80510747 ,   80.0000000
0000000078,   0.00000000 ,   7.00000000 ,   0.00000000 ,   4.60496008 ,   4.60496008 ,   80.0000000
0000000079,   1.00000000 ,   7.00000000 ,   0.00000000 ,   4.60496735 ,   4.60496735 ,   80.0000000
0000000080,   2.00000000 ,   7.00000000 ,   0.00000000 ,   4.60498237 ,   4.60498237 ,   80.0000000
0000000081,   3.00000000 ,   7.00000000 ,   0.00000000 ,   4.60499719 ,   4.60499719 ,   80.0000000
0000000082,   4.00000000 ,   7.00000000 ,   0.00000000 ,   4.60500726 ,   4.60500726 ,   80.0000000
0000000083,   5.00000000 ,   7.00000000 ,   0.00000000 ,   4.60501077 ,   4.60501077 ,   80.0000000
0000000084,   6.00000000 ,   7.00000000 ,   0.00000000 ,   4.60500726 ,   4.60500726 ,   80.0000000
0000000085,   7.00000000 ,   7.00000000 ,   0.00000000 ,   4.60499719 ,   4.60499719 ,   80.0000000
0000000086,   8.00000000 ,   7.00000000 ,   0.00000000 ,   4.60498237 ,   4.60498237 ,   80.0000000
0000000087,   9.00000000 ,   7.00000000 ,   0.00000000 ,   4.60496735 ,   4.60496735 ,   80.0000000
0000000088,   10.0000000 ,   7.00000000 ,   0.00000000 ,   4.60496008 ,   4.60496008 ,   80.0000000
0000000089,   0.00000000 ,   8.00000000 ,   0.00000000 ,   4.40421215 ,   4.40421215 ,   80.0000000
0000000090,   1.00000000 ,   8.00000000 ,   0.00000000 ,   4.40422347 ,   4.40422347 ,   80.0000000
0000000091,   2.00000000 ,   8.00000000 ,   0.00000000 ,   4.40424346 ,   4.40424346 ,   80.0000000
0000000092,   3.00000000 ,   8.00000000 ,   0.00000000 ,   4.40426111 ,   4.40426111 ,   80.0000000
0000000093,   4.00000000 ,   8.00000000 ,   0.00000000 ,   4.40427224 ,   4.40427224 ,   80.0000000
0000000094,   5.00000000 ,   8.00000000 ,   0.00000000 ,   4.40427597 ,   4.40427597 ,   80.0000000
0000000095,   6.00000000 ,   8.00000000 ,   0.00000000 ,   4.40427224 ,   4.40427224 ,   80.0000000
0000000096,   7.00000000 ,   8.00000000 ,   0.00000000 ,   4.40426111 ,   4.40426111 ,   80.0000000
0000000097,   8.00000000 ,   8.00000000 ,   0.00000000 ,   4.40424346 ,   4.40424346 ,   80.0000000
0000000098,   9.00000000 ,   8.00000000 ,   0.00000000 ,   4.40422347 ,   4.40422347 ,   80.0000000
0000000099,   10.0000000 ,   8.00000000 ,   0.00000000 ,   4.40421215 ,   4.40421215 ,   80.0000000
0000000100,   0.00000000 ,   9.00000000 ,   0.00000000 ,   4.20266116 ,   4.20266116 ,   80.0000000
0000000101,   1.00000000 ,   9.00000000 ,   0.00000000 ,   4.20267431 ,   4.20267431 ,   80.0000000
0000000102,   2.00000000 ,   9.00000000 ,   0.00000000 ,   4.20269288 ,   4.20269288 ,   80.0000000
0000000103,   3.00000000 ,   9.00000000 ,   0.00000000 ,   4.20270711 ,   4.20270711 ,   80.0000000
0000000104,   4.00000000 ,   9.00000000 ,   0.00000000 ,   4.20271533 ,   4.20271533 ,   80.0000000
0000000105,   5.00000000 ,   9.00000000 ,   0.00000000 ,   4.20271797 ,   4.20271797 ,   80.0000000
0000000106,   6.00000000 ,   9.00000000 ,   0.00000000 ,   4.20271533 ,   4.20271533 ,   80.0000000
0000000107,   7.00000000 ,   9.00000000 ,   0.00000000 ,   4.20270711 ,   4.20270711 ,   80.0000000
0000000108,   8.00000000 ,   9.00000000 ,   0.00000000 ,   4.20269288 ,   4.20269288 ,   80.0000000
0000000109,   9.00000000 ,   9.00000000 ,   0.00000000 ,   4.20267431 ,   4.20267431 ,   80.0000000
0000000110,   10.0000000 ,   9.00000000 ,   0.00000000 ,   4.20266116 ,   4.20266116 ,   80.0000000
0000000111,   0.00000000 ,   10.0000000 ,   0.00000000 ,   4.00000000 ,   4.00000000 ,   80.0000000
0000000112,   1.00000000 ,   10.0000000 ,   0.00000000 ,   4.00000000 ,   4.00000000 ,   80.0000000
0000000113,   2.00000000 ,   10.0000000 ,   0.00000000 ,   4.00000000 ,   4.00000000 ,   80.0000000
0000000114,   3.00000000 ,   10.0000000 ,   0.00000000 ,   4.00000000 ,   4.00000000 ,   80.0000000
0000000115,   4.00000000 ,   10.0000000 ,   0.00000000 ,   4.00000000 ,   4.00000000 ,   80.0000000
0000000116,   5.00000000 ,   10.0000000 ,   0.00000000 ,   4.00000000 ,   4.00000000 ,   80.0000000
0000000117,   6.00000000 ,   10.0000000 ,   0.00000000 ,   4.00000000 ,   4.00000000 ,   80.0000000
0000000118,   7.00000000 ,   10.0000000 ,   0.00000000 ,   4.00000000 ,   4.00000000 ,   80.0000000
0000000119,   8.00000000 ,   10.0000000 ,   0.00000000 ,   4.00000000 ,   4.00000000 ,   80.0000000
0000000120,   9.00000000 ,   10.0000000 ,   0.00000000 ,   4.00000000 ,   4.00000000 ,   80.0000000
0000000121,   10.0000000 ,   10.0000000 ,   0.00000000 ,   4.00000000 ,   4.00000000 ,   80.0000000
0000000122,   0.00000000 ,   0.00000000 ,   1.00000000 ,   6.00000000 ,   6.00000000 ,   66.6695393
0000000123,   1.00000000 ,   0.00000000 ,   1.00000000 ,   6.00000000 ,   6.00000000 ,   66.6695420
0000000124,   2.00000000 ,   0.00000000 ,   1.00000000 ,   6.00000000 ,   6.00000000 ,   66.6695489
0000000125,   3.00000000 ,   0.00000000 ,   1.00000000 ,   6.00000000 ,   6.00000000 ,   66.6695573
0000000126,   4.00000000 ,   0.00000000 ,   1.00000000 ,   6.00000000 ,   6.00000000 ,   66.6695639
0000000127,   5.00000000 ,   0.00000000 ,   1.00000000 ,   6.00000000 ,   6.00000000 ,   66.6695664
0000000128,   6.00000000 ,   0.00000000 ,   1.00000000 ,   6.00000000 ,   6.00000000 ,   66.6695639
0000000129,   7.00000000 ,   0.00000000 ,   1.00000000 ,   6.00000000 ,   6.00000000 ,   66.6695573
0000000130,   8.00000000 ,   0.00000000 ,   1.00000000 ,   6.00000000 ,   6.00000000 ,   66.6695489
0000000131,   9.00000000 ,   0.00000000 ,   1.00000000 ,   6.00000000 ,   6.00000000 ,   66.6695420
0000000132,   10.0000000 ,   0.00000000 ,   1.00000000 ,   6.00000000 ,   6.00000000 ,   66.6695393
0000000133,   0.00000000 ,   1.00000000 ,   1.00000000 ,   5.79399617 ,   5.79399617 ,   68.9128296
0000000134,   1.00000000 ,   1.00000000 ,   1.00000000 ,   5.79399646 ,   5.79399646 ,   68.9128309
0000000135,   2.00000000 ,   1.00000000 ,   1.00000000 ,   5.79399720 ,   5.79399720 ,   68.9128343
0000000136,   3.00000000 ,   1.00000000 ,   1.00000000 ,   5.79399808 ,   5.79399808 ,   68.9128385
0000000137,   4.00000000 ,   1.00000000 ,   1.00000000 ,   5.79399877 ,   5.79399877 ,   68.9128419
0000000138,   5.00000000 ,   1.00000000 ,   1.00000000 ,   5.79399903 ,   5.79399903 ,   68.9128432
0000000139,   6.00000000 ,   1.00000000 ,   1.00000000 ,   5.79399877 ,   5.79399877 ,   68.9128419
0000000140,   7.00000000 ,   1.00000000 ,   1.00000000 ,   5.79399808 ,   5.79399808 ,   68.9128385
0000000141,   8.00000000 ,   1.00000000 ,   1.00000000 ,   5.79399720 ,   5.79399720 ,   68.9128343
0000000142,   9.00000000 ,   1.00000000 ,   1.00000000 ,   5.79399646 ,   5.79399646 ,   68.9128309
0000000143,   10.0000000 ,   1.00000000 ,   1.00000000 ,   5.79399617 ,   5.79399617 ,   68.9128296
0000000144,   0.00000000 ,   2.00000000 ,   1.00000000 ,   5.59333836 ,   5.59333836 ,   69.8654551
0000000145,   1.00000000 ,   2.00000000 ,   1.00000000 ,   5.59333905 ,   5.59333905 ,   69.8654552
0000000146,   2.00000000 ,   2.00000000 ,   1.00000000 ,   5.59334082 ,   5.59334082 ,   69.8654562
0000000147,   3.00000000 ,   2.00000000 ,   1.00000000 ,   5.59334292 ,   5.59334292 ,   69.8654578
0000000148,   4.00000000 ,   2.00000000 ,   1.00000000 ,   5.59334455 ,   5.59334455 ,   69.8654593
0000000149,   5.00000000 ,   2.00000000 ,   1.00000000 ,   5.59334516 ,   5.59334516 ,   69.8654598
0000000150,   6.00000000 ,   2.00000000 ,   1.00000000 ,   5.59334455 ,   5.59334455 ,   69.8654593
0000000151,   7.00000000 ,   2.00000000 ,   1.00000000 ,   5.59334292 ,   5.59334292 ,   69.8654578
0000000152,   8.00000000 ,   2.00000000 ,   1.00000000 ,   5.59334082 ,   5.59334082 ,   69.8654562
0000000153,   9.00000000 ,   2.00000000 ,   1.00000000 ,   5.59333905 ,   5.59333905 ,   69.8654552
0000000154,   10.0000000 ,   2.00000000 ,   1.00000000 ,   5.59333836 ,   5.59333836 ,   69.8654551
0000000155,   0.00000000 ,   3.00000000 ,   1.00000000 ,   5.39437976 ,   5.39437976 ,   70.2609228
0000000156,   1.00000000 ,   3.00000000 ,   1.00000000 ,   5.39438121 ,   5.39438121 ,   70.2609193
0000000157,   2.00000000 ,   3.00000000 ,   1.00000000 ,   5.39438481 ,   5.39438481 ,   70.2609143
0000000158,   3.00000000 ,   3.00000000 ,   1.00000000 ,   5.39438897 ,   5.39438897 ,   70.2609114
0000000159,   4.00000000 ,   3.00000000 ,   1.00000000 ,   5.39439216 ,   5.39439216 ,   70.2609103
0000000160,   5.00000000 ,   3.00000000 ,   1.00000000 ,   5.39439333 ,   5.39439333 ,   70.2609101
0000000161,   6.00000000 ,   3.00000000 ,   1.00000000 ,   5.39439216 ,   5.39439216 ,   70.2609103
0000000162,   7.00000000 ,   3.00000000 ,   1.00000000 ,   5.39438897 ,   5.39438897 ,   70.2609114
0000000163,   8.00000000 ,   3.00000000 ,   1.00000000 ,   5.39438481 ,   5.39438481 ,   70.2609143
0000000164,   9.00000000 ,   3.00000000 ,   1.00000000 ,   5.39438121 ,   5.39438121 ,   70.2609193
0000000165,   10.0000000 ,   3.00000000 ,   1.00000000 ,   5.39437976 ,   5.39437976 ,   70.2609228
0000000166,   0.00000000 ,   4.00000000 ,   1.00000000 ,   5.19577445 ,   5.19577445 ,   70.4217337
0000000167,   1.00000000 ,   4.00000000 ,   1.00000000 ,   5.19577746 ,   5.19577746 ,   70.4217082
0000000168,   2.00000000 ,   4.00000000 ,   1.00000000 ,   5.19578464 ,   5.19578464 ,   70.4216734
0000000169,   3.00000000 ,   4.00000000 ,   1.00000000 ,   5.19579259 ,   5.19579259 ,   70.4216515
0000000170,   4.00000000 ,   4.00000000 ,   1.00000000 ,   5.19579846 ,   5.19579846 ,   70.4216418
0000000171,   5.00000000 ,   4.00000000 ,   1.00000000 ,   5.19580060 ,   5.19580060 ,   70.4216393
0000000172,   6.00000000 ,   4.00000000 ,   1.00000000 ,   5.19579846 ,   5.19579846 ,   70.4216418
0000000173,   7.00000000 ,   4.00000000 ,   1.00000000 ,   5.19579259 ,   5.19579259 ,   70.4216515
0000000174,   8.00000000 ,   4.00000000 ,   1.00000000 ,   5.19578464 ,   5.19578464 ,   70.4216734
0000000175,   9.00000000 ,   4.00000000 ,   1.00000000 ,   5.19577746 ,   5.19577746 ,   70.4217082
0000000176,   10.0000000 ,   4.00000000 ,   1.00000000 ,   5.19577445 ,   5.19577445 ,   70.4217337
0000000177,   0.00000000 ,   5.00000000 ,   1.00000000 ,   4.99704557 ,   4.99704557 ,   70.4863812
0000000178,   1.00000000 ,   5.00000000 ,   1.00000000 ,   4.99705212 ,   4.99705212 ,   70.4862087
0000000179,   2.00000000 ,   5.00000000 ,   1.00000000 ,   4.99706657 ,   4.99706657 ,   70.4860078
0000000180,   3.00000000 ,   5.00000000 ,   1.00000000 ,   4.99708153 ,   4.99708153 ,   70.4858942
0000000181,   4.00000000 ,   5.00000000 ,   1.00000000 ,   4.99709204 ,   4.99709204 ,   70.4858477
0000000182,   5.00000000 ,   5.00000000 ,   1.00000000 ,   4.99709575 ,   4.99709575 ,   70.4858360
0000000183,   6.00000000 ,   5.00000000 ,   1.00000000 ,   4.99709204 ,   4.99709204 ,   70.4858477
0000000184,   7.00000000 ,   5.00000000 ,   1.00000000 ,   4.99708153 ,   4.99708153 ,   70.4858942
0000000185,   8.00000000 ,   5.00000000 ,   1.00000000 ,   4.99706657 ,   4.99706657 ,   70.4860078
0000000186,   9.00000000 ,   5.00000000 ,   1.00000000 ,   4.99705212 ,   4.99705212 ,   70.4862087
0000000187,   10.0000000 ,   5.00000000 ,   1.00000000 ,   4.99704557 ,   4.99704557 ,   70.4863812
0000000188,   0.00000000 ,   6.00000000 ,   1.00000000 ,   4.79803849 ,   4.79803849 ,   70.5147890
0000000189,   1.00000000 ,   6.00000000 ,   1.00000000 ,   4.79805386 ,   4.79805386 ,   70.5136047
0000000190,   2.00000000 ,   6.00000000 ,   1.00000000 ,   4.79808352 ,   4.79808352 ,   70.5124817
0000000191,   3.00000000 ,   6.00000000 ,   1.00000000 ,   4.79811115 ,   4.79811115 ,   70.5119349
0000000192,   4.00000000 ,   6.00000000 ,   1.00000000 ,   4.79812914 ,   4.79812914 ,   70.5117356
0000000193,   5.00000000 ,   6.00000000 ,   1.00000000 ,   4.79813525 ,   4.79813525 ,   70.5116891
0000000194,   6.00000000 ,   6.00000000 ,   1.00000000 ,   4.79812914 ,   4.79812914 ,   70.5117356
0000000195,   7.00000000 ,   6.00000000 ,   1.00000000 ,   4.79811115 ,   4.79811115 ,   70.5119349
0000000196,   8.00000000 ,   6.00000000 ,   1.00000000 ,   4.79808352 ,   4.79808352 ,   70.5124817
0000000197,   9.00000000 ,   6.00000000 ,   1.00000000 ,   4.79805386 ,   4.79805386 ,   70.5136047
0000000198,   10.0000000 ,   6.00000000 ,   1.00000000 ,   4.79803849 ,   4.79803849 ,   70.5147890
0000000199,   0.00000000 ,   7.00000000 ,   1.00000000 ,   4.59870814 ,   4.59870814 ,   70.5429172
0000000200,   1.00000000 ,   7.00000000 ,   1.00000000 ,   4.59874749 ,   4.59874749 ,   70.5345829
0000000201,   2.00000000 ,   7.00000000 ,   1.00000000 ,   4.59880864 ,   4.59880864 ,   70.5284905
0000000202,   3.00000000 ,   7.00000000 ,   1.00000000 ,   4.59885739 ,   4.59885739 ,   70.5260203
0000000203,   4.00000000 ,   7.00000000 ,   1.00000000 ,   4.59888588 ,   4.59888588 ,   70.5252391
0000000204,   5.00000000 ,   7.00000000 ,   1.00000000 ,   4.59889504 ,   4.59889504 ,   70.5250724
0000000205,   6.00000000 ,   7.00000000 ,   1.00000000 ,   4.59888588 ,   4.59888588 ,   70.5252391
0000000206,   7.00000000 ,   7.00000000 ,   1.00000000 ,   4.59885739 ,   4.59885739 ,   70.5260203
0000000207,   8.00000000 ,   7.00000000 ,   1.00000000 ,   4.59880864 ,   4.59880864 ,   70.5284905
0000000208,   9.00000000 ,   7.00000000 ,   1.00000000 ,   4.59874749 ,   4.59874749 ,   70.5345829
0000000209,   10.0000000 ,   7.00000000 ,   1.00000000 ,   4.59870814 ,   4.59870814 ,   70.5429172
0000000210,   0.00000000 ,   8.00000000 ,   1.00000000 ,   4.39904859 ,   4.39904859 ,   70.6472476
0000000211,   1.00000000 ,   8.00000000 ,   1.00000000 ,   4.39915432 ,   4.39915432 ,   70.5872474
0000000212,   2.00000000 ,   8.00000000 ,   1.00000000 ,   4.39927384 ,   4.39927384 ,   70.5559322
0000000213,   3.00000000 ,   8.00000000 ,   1.00000000 ,   4.39935059 ,   4.39935059 ,   70.5458105
0000000214,   4.00000000 ,   8.00000000 ,   1.00000000 ,   4.39938928 ,   4.39938928 ,   70.5431088
0000000215,   5.00000000 ,   8.00000000 ,   1.00000000 ,   4.39940081 ,   4.39940081 ,   70.5425908
0000000216,   6.00000000 ,   8.00000000 ,   1.00000000 ,   4.39938928 ,   4.39938928 ,   70.5431088
0000000217,   7.00000000 ,   8.00000000 ,   1.00000000 ,   4.39935059 ,   4.39935059 ,   70.5458105
0000000218,   8.00000000 ,   8.00000000 ,   1.00000000 ,   4.39927384 ,   4.39927384 ,   70.5559322
0000000219,   9.00000000 ,   8.00000000 ,   1.00000000 ,   4.39915432 ,   4.39915432 ,   70.5872474
0000000220,   10.0000000 ,   8.00000000 ,   1.00000000 ,   4.39904859 ,   4.39904859 ,   70.6472476
0000000221,   0.00000000 ,   9.00000000 ,   1.00000000 ,   4.19915980 ,   4.19915980 ,   71.2096133
0000000222,   1.00000000 ,   9.00000000 ,   1.00000000 ,   4.19940767 ,   4.19940767 ,   70.7692438
0000000223,   2.00000000 ,   9.00000000 ,   1.00000000 ,   4.19958907 ,   4.19958907 ,   70.6253280
0000000224,   3.00000000 ,   9.00000000 ,   1.00000000 ,   4.19967636 ,   4.19967636 ,   70.5905806
0000000225,   4.00000000 ,   9.00000000 ,   1.00000000 ,   4.19971261 ,   4.19971261 ,   70.5830135
0000000226,   5.00000000 ,   9.00000000 ,   1.00000000 ,   4.19972239 ,   4.19972239 ,   70.5817324
0000000227,   6.00000000 ,   9.00000000 ,   1.00000000 ,   4.19971261 ,   4.19971261 ,   70.5830135
0000000228,   7.00000000 ,   9.00000000 ,   1.00000000 ,   4.19967636 ,   4.19967636 ,   70.5905806
0000000229,   8.00000000 ,   9.00000000 ,   1.00000000 ,   4.19958907 ,   4.19958907 ,   70.6253280
0000000230,   9.00000000 ,   9.00000000 ,   1.00000000 ,   4.19940767 ,   4.19940767 ,   70.7692438
0000000231,   10.0000000 ,   9.00000000 ,   1.00000000 ,   4.19915980 ,   4.19915980 ,   71.2096133
0000000232,   0.00000000 ,   10.0000000 ,   1.00000000 ,   4.00000000 ,   4.00000000 ,   74.5095260
0000000233,   1.00000000 ,   10.0000000 ,   1.00000000 ,   4.00000000 ,   4.00000000 ,   71.2245300
0000000234,   2.00000000 ,   10.0000000 ,   1.00000000 ,   4.00000000 ,   4.00000000 ,   70.7331053
0000000235,   3.00000000 ,   10.0000000 ,   1.00000000 ,   4.00000000 ,   4.00000000 ,   70.6537627
0000000236,   4.00000000 ,   10.0000000 ,   1.00000000 ,   4.00000000 ,   4.00000000 ,   70.6401349
0000000237,   5.00000000 ,   10.0000000 ,   1.00000000 ,   4.00000000 ,   4.00000000 ,   70.6381036
0000000238,   6.00000000 ,   10.0000000 ,   1.00000000 ,   4.00000000 ,   4.00000000 ,   70.6401349
0000000239,   7.00000000 ,   10.0000000 ,   1.00000000 ,   4.00000000 ,   4.00000000 ,   70.6537627
0000000240,   8.00000000 ,   10.0000000 ,   1.00000000 ,   4.00000000 ,   4.00000000 ,   70.7331053
0000000241,   9.00000000 ,   10.0000000 ,   1.00000000 ,   4.00000000 ,   4.00000000 ,   71.2245300
0000000242,   10.0000000 ,   10.0000000 ,   1.00000000 ,   4.00000000 ,   4.00000000 ,   74.5095260
0000000243,   0.00000000 ,   0.00000000 ,   2.00000000 ,   6.00000000 ,   6.00000000 ,   62.2835147
0000000244,   1.00000000 ,   0.00000000 ,   2.00000000 ,   6.00000000 ,   6.00000000 ,   62.2835159
0000000245,   2.00000000 ,   0.00000000 ,   2.00000000 ,   6.00000000 ,   6.00000000 ,   62.2835191
0000000246,   3.00000000 ,   0.00000000 ,   2.00000000 ,   6.00000000 ,   6.00000000 ,   62.2835231
0000000247,   4.00000000 ,   0.00000000 ,   2.00000000 ,   6.00000000 ,   6.00000000 ,   62.2835262
0000000248,   5.00000000 ,   0.00000000 ,   2.00000000 ,   6.00000000 ,   6.00000000 ,   62.2835274
0000000249,   6.00000000 ,   0.00000000 ,   2.00000000 ,   6.00000000 ,   6.00000000 ,   62.2835262
0000000250,   7.00000000 ,   0.00000000 ,   2.00000000 ,   6.00000000 ,   6.00000000 ,   62.2835231
0000000251,   8.00000000 ,   0.00000000 ,   2.00000000 ,   6.00000000 ,   6.00000000 ,   62.2835191
0000000252,   9.00000000 ,   0.00000000 ,   2.00000000 ,   6.00000000 ,   6.00000000 ,   62.2835159
0000000253,   10.0000000 ,   0.00000000 ,   2.00000000 ,   6.00000000 ,   6.00000000 ,   62.2835147
0000000254,   0.00000000 ,   1.00000000 ,   2.00000000 ,   5.79460917 ,   5.79460917 ,   63.3847558
0000000255,   1.00000000 ,   1.00000000 ,   2.00000000 ,   5.79460944 ,   5.79460944 ,   63.3847565
0000000256,   2.00000000 ,   1.00000000 ,   2.00000000 ,   5.79461013 ,   5.79461013 ,   63.3847584
0000000257,   3.00000000 ,   1.00000000 ,   2.00000000 ,   5.79461097 ,   5.79461097 ,   63.3847609
0000000258,   4.00000000 ,   1.00000000 ,   2.00000000 ,   5.79461163 ,   5.79461163 ,   63.3847628
0000000259,   5.00000000 ,   1.00000000 ,   2.00000000 ,   5.79461188 ,   5.79461188 ,   63.3847636
0000000260,   6.00000000 ,   1.00000000 ,   2.00000000 ,   5.79461163 ,   5.79461163 ,   63.3847628
0000000261,   7.00000000 ,   1.00000000 ,   2.00000000 ,   5.79461097 ,   5.79461097 ,   63.3847609
0000000262,   8.00000000 ,   1.00000000 ,   2.00000000 ,   5.79461013 ,   5.79461013 ,   63.3847584
0000000263,   9.00000000 ,   1.00000000 ,   2.00000000 ,   5.79460944 ,   5.79460944 ,   63.3847565
0000000264,   10.0000000 ,   1.00000000 ,   2.00000000 ,   5.79460917 ,   5.79460917 ,   63.3847558
0000000265,   0.00000000 ,   2.00000000 ,   2.00000000 ,   5.59245299 ,   5.59245299 ,   64.0081307
0000000266,   1.00000000 ,   2.00000000 ,   2.00000000 ,   5.59245365 ,   5.59245365 ,   64.0081305
0000000267,   2.00000000 ,   2.00000000 ,   2.00000000 ,   5.59245532 ,   5.59245532 ,   64.0081306
0000000268,   3.00000000 ,   2.00000000 ,   2.00000000 ,   5.59245732 ,   5.59245732 ,   64.0081312
0000000269,   4.00000000 ,   2.00000000 ,   2.00000000 ,   5.59245887 ,   5.59245887 ,   64.0081320
0000000270,   5.00000000 ,   2.00000000 ,   2.00000000 ,   5.59245946 ,   5.59245946 ,   64.0081323
0000000271,   6.00000000 ,   2.00000000 ,   2.00000000 ,   5.59245887 ,   5.59245887 ,   64.0081320
0000000272,   7.00000000 ,   2.00000000 ,   2.00000000 ,   5.59245732 ,   5.59245732 ,   64.0081312
0000000273,   8.00000000 ,   2.00000000 ,   2.00000000 ,   5.59245532 ,   5.59245532 ,   64.0081306
0000000274,   9.00000000 ,   2.00000000 ,   2.00000000 ,   5.59245365 ,   5.59245365 ,   64.0081305
0000000275,   10.0000000 ,   2.00000000 ,   2.00000000 ,   5.59245299 ,   5.59245299 ,   64.0081307
0000000276,   0.00000000 ,   3.00000000 ,   2.00000000 ,   5.39206497 ,   5.39206497 ,   64.3197375
0000000277,   1.00000000 ,   3.00000000 ,   2.00000000 ,   5.39206633 ,   5.39206633 ,   64.3197333
0000000278,   2.00000000 ,   3.00000000 ,   2.00000000 ,   5.39206971 ,   5.39206971 ,   64.3197267
0000000279,   3.00000000 ,   3.00000000 ,   2.00000000 ,   5.39207364 ,   5.39207364 ,   64.3197221
0000000280,   4.00000000 ,   3.00000000 ,   2.00000000 ,   5.39207666 ,   5.39207666 ,   64.3197201
0000000281,   5.00000000 ,   3.00000000 ,   2.00000000 ,   5.39207778 ,   5.39207778 ,   64.3197196
0000000282,   6.00000000 ,   3.00000000 ,   2.00000000 ,   5.39207666 ,   5.39207666 ,   64.3197201
0000000283,   7.00000000 ,   3.00000000 ,   2.00000000 ,   5.39207364 ,   5.39207364 ,   64.3197221
0000000284,   8.00000000 ,   3.00000000 ,   2.00000000 ,   5.39206971 ,   5.39206971 ,   64.3197267
0000000285,   9.00000000 ,   3.00000000 ,   2.00000000 ,   5.39206633 ,   5.39206633 ,   64.3197333
0000000286,   10.0000000 ,   3.00000000 ,   2.00000000 ,   5.39206497 ,   5.39206497 ,   64.3197375
0000000287,   0.00000000 ,   4.00000000 ,   2.00000000 ,   5.19252892 ,   5.19252892 ,   64.4638490
0000000288,   1.00000000 ,   4.00000000 ,   2.00000000 ,   5.19253168 ,   5.19253168 ,   64.4638216
0000000289,   2.00000000 ,   4.00000000 ,   2.00000000 ,   5.19253831 ,   5.19253831 ,   64.4637813
0000000290,   3.00000000 ,   4.00000000 ,   2.00000000 ,   5.19254573 ,   5.19254573 ,   64.4637541
0000000291,   4.00000000 ,   4.00000000 ,   2.00000000 ,   5.19255125 ,   5.19255125 ,   64.4637414
0000000292,   5.00000000 ,   4.00000000 ,   2.00000000 ,   5.19255326 ,   5.19255326 ,   64.4637379
0000000293,   6.00000000 ,   4.00000000 ,   2.00000000 ,   5.19255125 ,   5.19255125 ,   64.4637414
0000000294,   7.00000000 ,   4.00000000 ,   2.00000000 ,   5.19254573 ,   5.19254573 ,   64.4637541
0000000295,   8.00000000 ,   4.00000000 ,   2.00000000 ,   5.19253831 ,   5.19253831 ,   64.4637813
0000000296,   9.00000000 ,   4.00000000 ,   2.00000000 ,   5.19253168 ,   5.19253168 ,   64.4638216
0000000297,   10.0000000 ,   4.00000000 ,   2.00000000 ,   5.19252892 ,   5.19252892 ,   64.4638490
0000000298,   0.00000000 ,   5.00000000 ,   2.00000000 ,   4.99337385 ,   4.99337385 ,   64.5274640
0000000299,   1.00000000 ,   5.00000000 ,   2.00000000 ,   4.99337966 ,   4.99337966 ,   64.5272959
0000000300,   2.00000000 ,   5.00000000 ,   2.00000000 ,   4.99339271 ,   4.99339271 ,   64.5270808
0000000301,   3.00000000 ,   5.00000000 ,   2.00000000 ,   4.99340643 ,   4.99340643 ,   64.5269498
0000000302,   4.00000000 ,   5.00000000 ,   2.00000000 ,   4.99341618 ,   4.99341618 ,   64.5268926
0000000303,   5.00000000 ,   5.00000000 ,   2.00000000 ,   4.99341964 ,   4.99341964 ,   64.5268777
0000000304,   6.00000000 ,   5.00000000 ,   2.00000000 ,   4.99341618 ,   4.99341618 ,   64.5268926
0000000305,   7.00000000 ,   5.00000000 ,   2.00000000 ,   4.99340643 ,   4.99340643 ,   64.5269498
0000000306,   8.00000000 ,   5.00000000 ,   2.00000000 ,   4.99339271 ,   4.99339271 ,   64.5270808
0000000307,   9.00000000 ,   5.00000000 ,   2.00000000 ,   4.99337966 ,   4.99337966 ,   64.5272959
0000000308,   10.0000000 ,   5.00000000 ,   2.00000000 ,   4.99337385 ,   4.99337385 ,   64.5274640
0000000309,   0.00000000 ,   6.00000000 ,   2.00000000 ,   4.79438360 ,   4.79438360 ,   64.5576870
0000000310,   1.00000000 ,   6.00000000 ,   2.00000000 ,   4.79439658 ,   4.79439658 ,   64.5566457
0000000311,   2.00000000 ,   6.00000000 ,   2.00000000 ,   4.79442252 ,   4.79442252 ,   64.5555409
0000000312,   3.00000000 ,   6.00000000 ,   2.00000000 ,   4.79444731 ,   4.79444731 ,   64.5549529
0000000313,   4.00000000 ,   6.00000000 ,   2.00000000 ,   4.79446374 ,   4.79446374 ,   64.5547222
0000000314,   5.00000000 ,   6.00000000 ,   2.00000000 ,   4.79446937 ,   4.79446937 ,   64.5546656
0000000315,   6.00000000 ,   6.00000000 ,   2.00000000 ,   4.79446374 ,   4.79446374 ,   64.5547222
0000000316,   7.00000000 ,   6.00000000 ,   2.00000000 ,   4.79444731 ,   4.79444731 ,   64.5549529
0000000317,   8.00000000 ,   6.00000000 ,   2.00000000 ,   4.79442252 ,   4.79442252 ,   64.5555409
0000000318,   9.00000000 ,   6.00000000 ,   2.00000000 ,   4.79439658 ,   4.79439658 ,   64.5566457
0000000319,   10.0000000 ,   6.00000000 ,   2.00000000 ,   4.79438360 ,   4.79438360 ,   64.5576870
0000000320,   0.00000000 ,   7.00000000 ,   2.00000000 ,   4.59546756 ,   4.59546756 ,   64.5880340
0000000321,   1.00000000 ,   7.00000000 ,   2.00000000 ,   4.59549872 ,   4.59549872 ,   64.5814878
0000000322,   2.00000000 ,   7.00000000 ,   2.00000000 ,   4.59555001 ,   4.59555001 ,   64.5760311
0000000323,   3.00000000 ,   7.00000000 ,   2.00000000 ,   4.59559256 ,   4.59559256 ,   64.5735733
0000000324,   4.00000000 ,   7.00000000 ,   2.00000000 ,   4.59561811 ,   4.59561811 ,   64.5727241
0000000325,   5.00000000 ,   7.00000000 ,   2.00000000 ,   4.59562644 ,   4.59562644 ,   64.5725319
0000000326,   6.00000000 ,   7.00000000 ,   2.00000000 ,   4.59561811 ,   4.59561811 ,   64.5727241
0000000327,   7.00000000 ,   7.00000000 ,   2.00000000 ,   4.59559256 ,   4.59559256 ,   64.5735733
0000000328,   8.00000000 ,   7.00000000 ,   2.00000000 ,   4.59555001 ,   4.59555001 ,   64.5760311
0000000329,   9.00000000 ,   7.00000000 ,   2.00000000 ,   4.59549872 ,   4.59549872 ,   64.5814878
0000000330,   10.0000000 ,   7.00000000 ,   2.00000000 ,   4.59546756 ,   4.59546756 ,   64.5880340
0000000331,   0.00000000 ,   8.00000000 ,   2.00000000 ,   4.39660210 ,   4.39660210 ,   64.6848351
0000000332,   1.00000000 ,   8.00000000 ,   2.00000000 ,   4.39667939 ,   4.39667939 ,   64.6431386
0000000333,   2.00000000 ,   8.00000000 ,   2.00000000 ,   4.39677452 ,   4.39677452 ,   64.6178636
0000000334,   3.00000000 ,   8.00000000 ,   2.00000000 ,   4.39683929 ,   4.39683929 ,   64.6086145
0000000335,   4.00000000 ,   8.00000000 ,   2.00000000 ,   4.39687327 ,   4.39687327 ,   64.6058686
0000000336,   5.00000000 ,   8.00000000 ,   2.00000000 ,   4.39688361 ,   4.39688361 ,   64.6053022
0000000337,   6.00000000 ,   8.00000000 ,   2.00000000 ,   4.39687327 ,   4.39687327 ,   64.6058686
0000000338,   7.00000000 ,   8.00000000 ,   2.00000000 ,   4.39683929 ,   4.39683929 ,   64.6086145
0000000339,   8.00000000 ,   8.00000000 ,   2.00000000 ,   4.39677452 ,   4.39677452 ,   64.6178636
0000000340,   9.00000000 ,   8.00000000 ,   2.00000000 ,   4.39667940 ,   4.39667940 ,   64.6431386
0000000341,   10.0000000 ,   8.00000000 ,   2.00000000 ,   4.39660210 ,   4.39660210 ,   64.6848351
0000000342,   0.00000000 ,   9.00000000 ,   2.00000000 ,   4.19788041 ,   4.19788041 ,   65.1063381
0000000343,   1.00000000 ,   9.00000000 ,   2.00000000 ,   4.19804603 ,   4.19804603 ,   64.8383874
0000000344,   2.00000000 ,   9.00000000 ,   2.00000000 ,   4.19818157 ,   4.19818157 ,   64.7348084
0000000345,   3.00000000 ,   9.00000000 ,   2.00000000 ,   4.19825239 ,   4.19825239 ,   64.7058163
0000000346,   4.00000000 ,   9.00000000 ,   2.00000000 ,   4.19828354 ,   4.19828354 ,   64.6986252
0000000347,   5.00000000 ,   9.00000000 ,   2.00000000 ,   4.19829220 ,   4.19829220 ,   64.6972901
0000000348,   6.00000000 ,   9.00000000 ,   2.00000000 ,   4.19828354 ,   4.19828354 ,   64.6986252
0000000349,   7.00000000 ,   9.00000000 ,   2.00000000 ,   4.19825239 ,   4.19825239 ,   64.7058163
0000000350,   8.00000000 ,   9.00000000 ,   2.00000000 ,   4.19818157 ,   4.19818157 ,   64.7348084
0000000351,   9.00000000 ,   9.00000000 ,   2.00000000 ,   4.19804603 ,   4.19804603 ,   64.8383874
0000000352,   10.0000000 ,   9.00000000 ,   2.00000000 ,   4.19788041 ,   4.19788041 ,   65.1063381
0000000353,   0.00000000 ,   10.0000000 ,   2.00000000 ,   4.00000000 ,   4.00000000 ,   66.9888335
0000000354,   1.00000000 ,   10.0000000 ,   2.00000000 ,   4.00000000 ,   4.00000000 ,   65.2638234
0000000355,   2.00000000 ,   10.0000000 ,   2.00000000 ,   4.00000000 ,   4.00000000 ,   64.9513085
0000000356,   3.00000000 ,   10.0000000 ,   2.00000000 ,   4.00000000 ,   4.00000000 ,   64.8906072
0000000357,   4.00000000 ,   10.0000000 ,   2.00000000 ,   4.00000000 ,   4.00000000 ,   64.8782803
0000000358,   5.00000000 ,   10.0000000 ,   2.00000000 ,   4.00000000 ,   4.00000000 ,   64.8762083
0000000359,   6.00000000 ,   10.0000000 ,   2.00000000 ,   4.00000000 ,   4.00000000 ,   64.8782803
0000000360,   7.00000000 ,   10.0000000 ,   2.00000000 ,   4.00000000 ,   4.00000000 ,   64.8906072
0000000361,   8.00000000 ,   10.0000000 ,   2.00000000 ,   4.00000000 ,   4.00000000 ,   64.9513085
0000000362,   9.00000000 ,   10.0000000 ,   2.00000000 ,   4.00000000 ,   4.00000000 ,   65.2638234
0000000363,   10.0000000 ,   10.0000000 ,   2.00000000 ,   4.00000000 ,   4.00000000 ,   66.9888335
0000000364,   0.00000000 ,   0.00000000 ,   3.00000000 ,   6.00000000 ,   6.00000000 ,   60.7611749
0000000365,   1.00000000 ,   0.00000000 ,   3.00000000 ,   6.00000000 ,   6.00000000 ,   60.7611753
0000000366,   2.00000000 ,   0.00000000 ,   3.00000000 ,   6.00000000 ,   6.00000000 ,   60.7611762
0000000367,   3.00000000 ,   0.00000000 ,   3.00000000 ,   6.00000000 ,   6.00000000 ,   60.7611774
0000000368,   4.00000000 ,   0.00000000 ,   3.00000000 ,   6.00000000 ,   6.00000000 ,   60.7611784
0000000369,   5.00000000 ,   0.00000000 ,   3.00000000 ,   6.00000000 ,   6.00000000 ,   60.7611787
0000000370,   6.00000000 ,   0.00000000 ,   3.00000000 ,   6.00000000 ,   6.00000000 ,   60.7611784
0000000371,   7.00000000 ,   0.00000000 ,   3.00000000 ,   6.00000000 ,   6.00000000 ,   60.7611774
0000000372,   8.00000000 ,   0.00000000 ,   3.00000000 ,   6.00000000 ,   6.00000000 ,   60.7611762
0000000373,   9.00000000 ,   0.00000000 ,   3.00000000 ,   6.00000000 ,   6.00000000 ,   60.7611753
0000000374,   10.0000000 ,   0.00000000 ,   3.00000000 ,   6.00000000 ,   6.00000000 ,   60.7611749
0000000375,   0.00000000 ,   1.00000000 ,   3.00000000 ,   5.79456281 ,   5.79456281 ,   61.1694380
0000000376,   1.00000000 ,   1.00000000 ,   3.00000000 ,   5.79456300 ,   5.79456300 ,   61.1694381
0000000377,   2.00000000 ,   1.00000000 ,   3.00000000 ,   5.79456350 ,   5.79456350 ,   61.1694387
0000000378,   3.00000000 ,   1.00000000 ,   3.00000000 ,   5.79456409 ,   5.79456409 ,   61.1694394
0000000379,   4.00000000 ,   1.00000000 ,   3.00000000 ,   5.79456457 ,   5.79456457 ,   61.1694400
0000000380,   5.00000000 ,   1.00000000 ,   3.00000000 ,   5.79456475 ,   5.79456475 ,   61.1694402
0000000381,   6.00000000 ,   1.00000000 ,   3.00000000 ,   5.79456457 ,   5.79456457 ,   61.1694400
0000000382,   7.00000000 ,   1.00000000 ,   3.00000000 ,   5.79456409 ,   5.79456409 ,   61.1694394
0000000383,   8.00000000 ,   1.00000000 ,   3.00000000 ,   5.79456350 ,   5.79456350 ,   61.1694387
0000000384,   9.00000000 ,   1.00000000 ,   3.00000000 ,   5.79456300 ,   5.79456300 ,   61.1694381
0000000385,   10.0000000 ,   1.00000000 ,   3.00000000 ,   5.79456281 ,   5.79456281 ,   61.1694380
0000000386,   0.00000000 ,   2.00000000 ,   3.00000000 ,   5.59127146 ,   5.59127146 ,   61.4407148
0000000387,   1.00000000 ,   2.00000000 ,   3.00000000 ,   5.59127192 ,   5.59127192 ,   61.4407144
0000000388,   2.00000000 ,   2.00000000 ,   3.00000000 ,   5.59127308 ,   5.59127308 ,   61.4407137
0000000389,   3.00000000 ,   2.00000000 ,   3.00000000 ,   5.59127447 ,   5.59127447 ,   61.4407133
0000000390,   4.00000000 ,   2.00000000 ,   3.00000000 ,   5.59127557 ,   5.59127557 ,   61.4407132
0000000391,   5.00000000 ,   2.00000000 ,   3.00000000 ,   5.59127598 ,   5.59127598 ,   61.4407132
0000000392,   6.00000000 ,   2.00000000 ,   3.00000000 ,   5.59127557 ,   5.59127557 ,   61.4407132
0000000393,   7.00000000 ,   2.00000000 ,   3.00000000 ,   5.59127447 ,   5.59127447 ,   61.4407133
0000000394,   8.00000000 ,   2.00000000 ,   3.00000000 ,   5.59127308 ,   5.59127308 ,   61.4407137
0000000395,   9.00000000 ,   2.00000000 ,   3.00000000 ,   5.59127192 ,   5.59127192 ,   61.4407144
0000000396,   10.0000000 ,   2.00000000 ,   3.00000000 ,   5.59127146 ,   5.59127146 ,   61.4407148
0000000397,   0.00000000 ,   3.00000000 ,   3.00000000 ,   5.38958867 ,   5.38958867 ,   61.5943374
0000000398,   1.00000000 ,   3.00000000 ,   3.00000000 ,   5.38958956 ,   5.38958956 ,   61.5943342
0000000399,   2.00000000 ,   3.00000000 ,   3.00000000 ,   5.38959181 ,   5.38959181 ,   61.5943285
0000000400,   3.00000000 ,   3.00000000 ,   3.00000000 ,   5.38959446 ,   5.38959446 ,   61.5943239
0000000401,   4.00000000 ,   3.00000000 ,   3.00000000 ,   5.38959652 ,   5.38959652 ,   61.5943215
0000000402,   5.00000000 ,   3.00000000 ,   3.00000000 ,   5.38959729 ,   5.38959729 ,   61.5943208
0000000403,   6.00000000 ,   3.00000000 ,   3.00000000 ,   5.38959652 ,   5.38959652 ,   61.5943215
0000000404,   7.00000000 ,   3.00000000 ,   3.00000000 ,   5.38959446 ,   5.38959446 ,   61.5943239
0000000405,   8.00000000 ,   3.00000000 ,   3.00000000 ,   5.38959181 ,   5.38959181 ,   61.5943285
0000000406,   9.00000000 ,   3.00000000 ,   3.00000000 ,   5.38958956 ,   5.38958956 ,   61.5943342
0000000407,   10.0000000 ,   3.00000000 ,   3.00000000 ,   5.38958867 ,   5.38958867 ,   61.5943374
0000000408,   0.00000000 ,   4.00000000 ,   3.00000000 ,   5.18903038 ,   5.18903038 ,   61.6720017
0000000409,   1.00000000 ,   4.00000000 ,   3.00000000 ,   5.18903207 ,   5.18903207 ,   61.6719839
0000000410,   2.00000000 ,   4.00000000 ,   3.00000000 ,   5.18903623 ,   5.18903623 ,   61.6719547
0000000411,   3.00000000 ,   4.00000000 ,   3.00000000 ,   5.18904100 ,   5.18904100 ,   61.6719329
0000000412,   4.00000000 ,   4.00000000 ,   3.00000000 ,   5.18904461 ,   5.18904461 ,   61.6719217
0000000413,   5.00000000 ,   4.00000000 ,   3.00000000 ,   5.18904594 ,   5.18904594 ,   61.6719185
0000000414,   6.00000000 ,   4.00000000 ,   3.00000000 ,   5.18904461 ,   5.18904461 ,   61.6719217
0000000415,   7.00000000 ,   4.00000000 ,   3.00000000 ,   5.18904100 ,   5.18904100 ,   61.6719329
0000000416,   8.00000000 ,   4.00000000 ,   3.00000000 ,   5.18903623 ,   5.18903623 ,   61.6719547
0000000417,   9.00000000 ,   4.00000000 ,   3.00000000 ,   5.18903207 ,   5.18903207 ,   61.6719839
0000000418,   10.0000000 ,   4.00000000 ,   3.00000000 ,   5.18903038 ,   5.18903038 ,   61.6720017
0000000419,   0.00000000 ,   5.00000000 ,   3.00000000 ,   4.98926739 ,   4.98926739 ,   61.7082382
0000000420,   1.00000000 ,   5.00000000 ,   3.00000000 ,   4.98927064 ,   4.98927064 ,   61.7081427
0000000421,   2.00000000 ,   5.00000000 ,   3.00000000 ,   4.98927826 ,   4.98927826 ,   61.7080039
0000000422,   3.00000000 ,   5.00000000 ,   3.00000000 ,   4.98928659 ,   4.98928659 ,   61.7079101
0000000423,   4.00000000 ,   5.00000000 ,   3.00000000 ,   4.98929267 ,   4.98929267 ,   61.7078655
0000000424,   5.00000000 ,   5.00000000 ,   3.00000000 ,   4.98929486 ,   4.98929486 ,   61.7078531
0000000425,   6.00000000 ,   5.00000000 ,   3.00000000 ,   4.98929267 ,   4.98929267 ,   61.7078655
0000000426,   7.00000000 ,   5.00000000 ,   3.00000000 ,   4.98928659 ,   4.98928659 ,   61.7079101
0000000427,   8.00000000 ,   5.00000000 ,   3.00000000 ,   4.98927827 ,   4.98927827 ,   61.7080039
0000000428,   9.00000000 ,   5.00000000 ,   3.00000000 ,   4.98927064 ,   4.98927064 ,   61.7081427
0000000429,   10.0000000 ,   5.00000000 ,   3.00000000 ,   4.98926739 ,   4.98926739 ,   61.7082382
0000000430,   0.00000000 ,   6.00000000 ,   3.00000000 ,   4.79011333 ,   4.79011333 ,   61.7261770
0000000431,   1.00000000 ,   6.00000000 ,   3.00000000 ,   4.79011980 ,   4.79011980 ,   61.7256670
0000000432,   2.00000000 ,   6.00000000 ,   3.00000000 ,   4.79013370 ,   4.79013370 ,   61.7250326
0000000433,   3.00000000 ,   6.00000000 ,   3.00000000 ,   4.79014777 ,   4.79014777 ,   61.7246516
0000000434,   4.00000000 ,   6.00000000 ,   3.00000000 ,   4.79015750 ,   4.79015750 ,   61.7244864
0000000435,   5.00000000 ,   6.00000000 ,   3.00000000 ,   4.79016091 ,   4.79016091 ,   61.7244432
0000000436,   6.00000000 ,   6.00000000 ,   3.00000000 ,   4.79015750 ,   4.79015750 ,   61.7244864
0000000437,   7.00000000 ,   6.00000000 ,   3.00000000 ,   4.79014777 ,   4.79014777 ,   61.7246516
0000000438,   8.00000000 ,   6.00000000 ,   3.00000000 ,   4.79013370 ,   4.79013370 ,   61.7250326
0000000439,   9.00000000 ,   6.00000000 ,   3.00000000 ,   4.79011980 ,   4.79011980 ,   61.7256670
0000000440,   10.0000000 ,   6.00000000 ,   3.00000000 ,   4.79011333 ,   4.79011333 ,   61.7261770
0000000441,   0.00000000 ,   7.00000000 ,   3.00000000 ,   4.59149063 ,   4.59149063 ,   61.7456402
0000000442,   1.00000000 ,   7.00000000 ,   3.00000000 ,   4.59150398 ,   4.59150398 ,   61.7429449
0000000443,   2.00000000 ,   7.00000000 ,   3.00000000 ,   4.59152882 ,   4.59152882 ,   61.7401851
0000000444,   3.00000000 ,   7.00000000 ,   3.00000000 ,   4.59155130 ,   4.59155130 ,   61.7387439
0000000445,   4.00000000 ,   7.00000000 ,   3.00000000 ,   4.59156563 ,   4.59156563 ,   61.7381835
0000000446,   5.00000000 ,   7.00000000 ,   3.00000000 ,   4.59157046 ,   4.59157046 ,   61.7380466
0000000447,   6.00000000 ,   7.00000000 ,   3.00000000 ,   4.59156563 ,   4.59156563 ,   61.7381835
0000000448,   7.00000000 ,   7.00000000 ,   3.00000000 ,   4.59155130 ,   4.59155130 ,   61.7387439
0000000449,   8.00000000 ,   7.00000000 ,   3.00000000 ,   4.59152882 ,   4.59152882 ,   61.7401851
0000000450,   9.00000000 ,   7.00000000 ,   3.00000000 ,   4.59150398 ,   4.59150398 ,   61.7429449
0000000451,   10.0000000 ,   7.00000000 ,   3.00000000 ,   4.59149063 ,   4.59149063 ,   61.7456402
0000000452,   0.00000000 ,   8.00000000 ,   3.00000000 ,   4.39341701 ,   4.39341701 ,   61.8063009
0000000453,   1.00000000 ,   8.00000000 ,   3.00000000 ,   4.39344453 ,   4.39344453 ,   61.7924835
0000000454,   2.00000000 ,   8.00000000 ,   3.00000000 ,   4.39348556 ,   4.39348556 ,   61.7814005
0000000455,   3.00000000 ,   8.00000000 ,   3.00000000 ,   4.39351724 ,   4.39351724 ,   61.7764933
0000000456,   4.00000000 ,   8.00000000 ,   3.00000000 ,   4.39353534 ,   4.39353534 ,   61.7748063
0000000457,   5.00000000 ,   8.00000000 ,   3.00000000 ,   4.39354109 ,   4.39354109 ,   61.7744241
0000000458,   6.00000000 ,   8.00000000 ,   3.00000000 ,   4.39353534 ,   4.39353534 ,   61.7748063
0000000459,   7.00000000 ,   8.00000000 ,   3.00000000 ,   4.39351724 ,   4.39351724 ,   61.7764933
0000000460,   8.00000000 ,   8.00000000 ,   3.00000000 ,   4.39348556 ,   4.39348556 ,   61.7814005
0000000461,   9.00000000 ,   8.00000000 ,   3.00000000 ,   4.39344453 ,   4.39344453 ,   61.7924835
0000000462,   10.0000000 ,   8.00000000 ,   3.00000000 ,   4.39341701 ,   4.39341701 ,   61.8063009
0000000463,   0.00000000 ,   9.00000000 ,   3.00000000 ,   4.19605763 ,   4.19605763 ,   62.0424839
0000000464,   1.00000000 ,   9.00000000 ,   3.00000000 ,   4.19610468 ,   4.19610468 ,   61.9767695
0000000465,   2.00000000 ,   9.00000000 ,   3.00000000 ,   4.19615606 ,   4.19615606 ,   61.9380096
0000000466,   3.00000000 ,   9.00000000 ,   3.00000000 ,   4.19618819 ,   4.19618819 ,   61.9238355
0000000467,   4.00000000 ,   9.00000000 ,   3.00000000 ,   4.19620408 ,   4.19620408 ,   61.9195663
0000000468,   5.00000000 ,   9.00000000 ,   3.00000000 ,   4.19620877 ,   4.19620877 ,   61.9186711
0000000469,   6.00000000 ,   9.00000000 ,   3.00000000 ,   4.19620408 ,   4.19620408 ,   61.9195663
0000000470,   7.00000000 ,   9.00000000 ,   3.00000000 ,   4.19618819 ,   4.19618819 ,   61.9238355
0000000471,   8.00000000 ,   9.00000000 ,   3.00000000 ,   4.19615606 ,   4.19615606 ,   61.9380096
0000000472,   9.00000000 ,   9.00000000 ,   3.00000000 ,   4.19610468 ,   4.19610468 ,   61.9767695
0000000473,   10.0000000 ,   9.00000000 ,   3.00000000 ,   4.19605763 ,   4.19605763 ,   62.0424839
0000000474,   0.00000000 ,   10.0000000 ,   3.00000000 ,   4.00000000 ,   4.00000000 ,   62.9405891
0000000475,   1.00000000 ,   10.0000000 ,   3.00000000 ,   4.00000000 ,   4.00000000 ,   62.6854784
0000000476,   2.00000000 ,   10.0000000 ,   3.00000000 ,   4.00000000 ,   4.00000000 ,   62.5817869
0000000477,   3.00000000 ,   10.0000000 ,   3.00000000 ,   4.00000000 ,   4.00000000 ,   62.5504248
0000000478,   4.00000000 ,   10.0000000 ,   3.00000000 ,   4.00000000 ,   4.00000000 ,   62.5419453
0000000479,   5.00000000 ,   10.0000000 ,   3.00000000 ,   4.00000000 ,   4.00000000 ,   62.5402628
0000000480,   6.00000000 ,   10.0000000 ,   3.00000000 ,   4.00000000 ,   4.00000000 ,   62.5419453
0000000481,   7.00000000 ,   10.0000000 ,   3.00000000 ,   4.00000000 ,   4.00000000 ,   62.5504248
0000000482,   8.00000000 ,   10.0000000 ,   3.00000000 ,   4.00000000 ,   4.00000000 ,   62.5817869
0000000483,   9.00000000 ,   10.0000000 ,   3.00000000 ,   4.00000000 ,   4.00000000 ,   62.6854784
0000000484,   10.0000000 ,   10.0000000 ,   3.00000000 ,   4.00000000 ,   4.00000000 ,   62.9405891
0000000485,   0.00000000 ,   0.00000000 ,   4.00000000 ,   6.00000000 ,   6.00000000 ,   60.3294553
0000000486,   1.00000000 ,   0.00000000 ,   4.00000000 ,   6.00000000 ,   6.00000000 ,   60.3294554
0000000487,   2.00000000 ,   0.00000000 ,   4.00000000 ,   6.00000000 ,   6.00000000 ,   60.3294555
0000000488,   3.00000000 ,   0.00000000 ,   4.00000000 ,   6.00000000 ,   6.00000000 ,   60.3294557
0000000489,   4.00000000 ,   0.00000000 ,   4.00000000 ,   6.00000000 ,   6.00000000 ,   60.3294559
0000000490,   5.00000000 ,   0.00000000 ,   4.00000000 ,   6.00000000 ,   6.00000000 ,   60.3294559
0000000491,   6.00000000 ,   0.00000000 ,   4.00000000 ,   6.00000000 ,   6.00000000 ,   60.3294559
0000000492,   7.00000000 ,   0.00000000 ,   4.00000000 ,   6.00000000 ,   6.00000000 ,   60.3294557
0000000493,   8.00000000 ,   0.00000000 ,   4.00000000 ,   6.00000000 ,   6.00000000 ,   60.3294555
0000000494,   9.00000000 ,   0.00000000 ,   4.00000000 ,   6.00000000 ,   6.00000000 ,   60.3294554
0000000495,   10.0000000 ,   0.00000000 ,   4.00000000 ,   6.00000000 ,   6.00000000 ,   60.3294553
0000000496,   0.00000000 ,   1.00000000 ,   4.00000000 ,   5.83718027 ,   5.83718027 ,   60.4119191
0000000497,   1.00000000 ,   1.00000000 ,   4.00000000 ,   5.83718026 ,   5.83718026 ,   60.4119190
0000000498,   2.00000000 ,   1.00000000 ,   4.00000000 ,   5.83718028 ,   5.83718028 ,   60.4119190
0000000499,   3.00000000 ,   1.00000000 ,   4.00000000 ,   5.83718036 ,   5.83718036 ,   60.4119190
0000000500,   4.00000000 ,   1.00000000 ,   4.00000000 ,   5.83718046 ,   5.83718046 ,   60.4119190
0000000501,   5.00000000 ,   1.00000000 ,   4.00000000 ,   5.83718050 ,   5.83718050 ,   60.4119190
0000000502,   6.00000000 ,   1.00000000 ,   4.00000000 ,   5.83718046 ,   5.83718046 ,   60.4119190
0000000503,   7.00000000 ,   1.00000000 ,   4.00000000 ,   5.83718036 ,   5.83718036 ,   60.4119190
0000000504,   8.00000000 ,   1.00000000 ,   4.00000000 ,   5.83718028 ,   5.83718028 ,   60.4119190
0000000505,   9.00000000 ,   1.00000000 ,   4.00000000 ,   5.83718026 ,   5.83718026 ,   60.4119190
0000000506,   10.0000000 ,   1.00000000 ,   4.00000000 ,   5.83718027 ,   5.83718027 ,   60.4119191
0000000507,   0.00000000 ,   2.00000000 ,   4.00000000 ,   5.67567155 ,   5.67567155 ,   60.4899382
0000000508,   1.00000000 ,   2.00000000 ,   4.00000000 ,   5.67567123 ,   5.67567123 ,   60.4899377
0000000509,   2.00000000 ,   2.00000000 ,   4.00000000 ,   5.67567064 ,   5.67567064 ,   60.4899368
0000000510,   3.00000000 ,   2.00000000 ,   4.00000000 ,   5.67567020 ,   5.67567020 ,   60.4899360
0000000511,   4.00000000 ,   2.00000000 ,   4.00000000 ,   5.67567002 ,   5.67567002 ,   60.4899355
0000000512,   5.00000000 ,   2.00000000 ,   4.00000000 ,   5.67566998 ,   5.67566998 ,   60.4899353
0000000513,   6.00000000 ,   2.00000000 ,   4.00000000 ,   5.67567002 ,   5.67567002 ,   60.4899355
0000000514,   7.00000000 ,   2.00000000 ,   4.00000000 ,   5.67567020 ,   5.67567020 ,   60.4899360
0000000515,   8.00000000 ,   2.00000000 ,   4.00000000 ,   5.67567064 ,   5.67567064 ,   60.4899368
0000000516,   9.00000000 ,   2.00000000 ,   4.00000000 ,   5.67567123 ,   5.67567123 ,   60.4899377
0000000517,   10.0000000 ,   2.00000000 ,   4.00000000 ,   5.67567155 ,   5.67567155 ,   60.4899382
0000000518,   0.00000000 ,   3.00000000 ,   4.00000000 ,   5.54680135 ,   5.54680135 ,   60.5363552
0000000519,   1.00000000 ,   3.00000000 ,   4.00000000 ,   5.54679948 ,   5.54679948 ,   60.5363529
0000000520,   2.00000000 ,   3.00000000 ,   4.00000000 ,   5.54679583 ,   5.54679583 ,   60.5363483
0000000521,   3.00000000 ,   3.00000000 ,   4.00000000 ,   5.54679277 ,   5.54679277 ,   60.5363443
0000000522,   4.00000000 ,   3.00000000 ,   4.00000000 ,   5.54679108 ,   5.54679108 ,   60.5363420
0000000523,   5.00000000 ,   3.00000000 ,   4.00000000 ,   5.54679058 ,   5.54679058 ,   60.5363413
0000000524,   6.00000000 ,   3.00000000 ,   4.00000000 ,   5.54679108 ,   5.54679108 ,   60.5363420
0000000525,   7.00000000 ,   3.00000000 ,   4.00000000 ,   5.54679277 ,   5.54679277 ,   60.5363443
0000000526,   8.00000000 ,   3.00000000 ,   4.00000000 ,   5.54679583 ,   5.54679583 ,   60.5363483
0000000527,   9.00000000 ,   3.00000000 ,   4.00000000 ,   5.54679948 ,   5.54679948 ,   60.5363529
0000000528,   10.0000000 ,   3.00000000 ,   4.00000000 ,   5.54680135 ,   5.54680135 ,   60.5363552
0000000529,   0.00000000 ,   4.00000000 ,   4.00000000 ,   5.42199668 ,   5.42199668 ,   60.5577036
0000000530,   1.00000000 ,   4.00000000 ,   4.00000000 ,   5.42198780 ,   5.42198780 ,   60.5576926
0000000531,   2.00000000 ,   4.00000000 ,   4.00000000 ,   5.42197116 ,   5.42197116 ,   60.5576726
0000000532,   3.00000000 ,   4.00000000 ,   4.00000000 ,   5.42195745 ,   5.42195745 ,   60.5576563
0000000533,   4.00000000 ,   4.00000000 ,   4.00000000 ,   5.42194987 ,   5.42194987 ,   60.5576473
0000000534,   5.00000000 ,   4.00000000 ,   4.00000000 ,   5.42194759 ,   5.42194759 ,   60.5576446
0000000535,   6.00000000 ,   4.00000000 ,   4.00000000 ,   5.42194987 ,   5.42194987 ,   60.5576473
0000000536,   7.00000000 ,   4.00000000 ,   4.00000000 ,   5.42195745 ,   5.42195745 ,   60.5576563
0000000537,   8.00000000 ,   4.00000000 ,   4.00000000 ,   5.42197116 ,   5.42197116 ,   60.5576726
0000000538,   9.00000000 ,   4.00000000 ,   4.00000000 ,   5.42198780 ,   5.42198780 ,   60.5576926
0000000539,   10.0000000 ,   4.00000000 ,   4.00000000 ,   5.42199668 ,   5.42199668 ,   60.5577036
0000000540,   0.00000000 ,   5.00000000 ,   4.00000000 ,   5.29317819 ,   5.29317819 ,   60.5646313
0000000541,   1.00000000 ,   5.00000000 ,   4.00000000 ,   5.29313961 ,   5.29313961 ,   60.5645807
0000000542,   2.00000000 ,   5.00000000 ,   4.00000000 ,   5.29307213 ,   5.29307213 ,   60.5644973
0000000543,   3.00000000 ,   5.00000000 ,   4.00000000 ,   5.29301949 ,   5.29301949 ,   60.5644349
0000000544,   4.00000000 ,   5.00000000 ,   4.00000000 ,   5.29299148 ,   5.29299148 ,   60.5644025
0000000545,   5.00000000 ,   5.00000000 ,   4.00000000 ,   5.29298321 ,   5.29298321 ,   60.5643931
0000000546,   6.00000000 ,   5.00000000 ,   4.00000000 ,   5.29299148 ,   5.29299148 ,   60.5644025
0000000547,   7.00000000 ,   5.00000000 ,   4.00000000 ,   5.29301949 ,   5.29301949 ,   60.5644349
0000000548,   8.00000000 ,   5.00000000 ,   4.00000000 ,   5.29307213 ,   5.29307213 ,   60.5644973
0000000549,   9.00000000 ,   5.00000000 ,   4.00000000 ,   5.29313961 ,   5.29313961 ,   60.5645807
0000000550,   10.0000000 ,   5.00000000 ,   4.00000000 ,   5.29317819 ,   5.29317819 ,   60.5646313
0000000551,   0.00000000 ,   6.00000000 ,   4.00000000 ,   5.16121666 ,   5.16121666 ,   60.5658438
0000000552,   1.00000000 ,   6.00000000 ,   4.00000000 ,   5.16105900 ,   5.16105900 ,   60.5656158
0000000553,   2.00000000 ,   6.00000000 ,   4.00000000 ,   5.16080769 ,   5.16080769 ,   60.5652834
0000000554,   3.00000000 ,   6.00000000 ,   4.00000000 ,   5.16062577 ,   5.16062577 ,   60.5650576
0000000555,   4.00000000 ,   6.00000000 ,   4.00000000 ,   5.16053448 ,   5.16053448 ,   60.5649495
0000000556,   5.00000000 ,   6.00000000 ,   4.00000000 ,   5.16050845 ,   5.16050845 ,   60.5649194
0000000557,   6.00000000 ,   6.00000000 ,   4.00000000 ,   5.16053448 ,   5.16053448 ,   60.5649495
0000000558,   7.00000000 ,   6.00000000 ,   4.00000000 ,   5.16062577 ,   5.16062577 ,   60.5650576
0000000559,   8.00000000 ,   6.00000000 ,   4.00000000 ,   5.16080769 ,   5.16080769 ,   60.5652834
0000000560,   9.00000000 ,   6.00000000 ,   4.00000000 ,   5.16105900 ,   5.16105900 ,   60.5656158
0000000561,   10.0000000 ,   6.00000000 ,   4.00000000 ,   5.16121666 ,   5.16121666 ,   60.5658438
0000000562,   0.00000000 ,   7.00000000 ,   4.00000000 ,   5.02657848 ,   5.02657848 ,   60.5700846
0000000563,   1.00000000 ,   7.00000000 ,   4.00000000 ,   5.02598031 ,   5.02598031 ,   60.5690930
0000000564,   2.00000000 ,   7.00000000 ,   4.00000000 ,   5.02513282 ,   5.02513282 ,   60.5678504
0000000565,   3.00000000 ,   7.00000000 ,   4.00000000 ,   5.02457254 ,   5.02457254 ,   60.5670976
0000000566,   4.00000000 ,   7.00000000 ,   4.00000000 ,   5.02431081 ,   5.02431081 ,   60.5667682
0000000567,   5.00000000 ,   7.00000000 ,   4.00000000 ,   5.02423930 ,   5.02423930 ,   60.5666815
0000000568,   6.00000000 ,   7.00000000 ,   4.00000000 ,   5.02431081 ,   5.02431081 ,   60.5667682
0000000569,   7.00000000 ,   7.00000000 ,   4.00000000 ,   5.02457254 ,   5.02457254 ,   60.5670976
0000000570,   8.00000000 ,   7.00000000 ,   4.00000000 ,   5.02513282 ,   5.02513282 ,   60.5678504
0000000571,   9.00000000 ,   7.00000000 ,   4.00000000 ,   5.02598031 ,   5.02598031 ,   60.5690930
0000000572,   10.0000000 ,   7.00000000 ,   4.00000000 ,   5.02657848 ,   5.02657848 ,   60.5700846
0000000573,   0.00000000 ,   8.00000000 ,   4.00000000 ,   4.87735050 ,   4.87735050 ,   60.5931867
0000000574,   1.00000000 ,   8.00000000 ,   4.00000000 ,   4.87535345 ,   4.87535345 ,   60.5891494
0000000575,   2.00000000 ,   8.00000000 ,   4.00000000 ,   4.87290388 ,   4.87290388 ,   60.5849530
0000000576,   3.00000000 ,   8.00000000 ,   4.00000000 ,   4.87144578 ,   4.87144578 ,   60.5827241
0000000577,   4.00000000 ,   8.00000000 ,   4.00000000 ,   4.87081764 ,   4.87081764 ,   60.5818420
0000000578,   5.00000000 ,   8.00000000 ,   4.00000000 ,   4.87065419 ,   4.87065419 ,   60.5816237
0000000579,   6.00000000 ,   8.00000000 ,   4.00000000 ,   4.87081764 ,   4.87081764 ,   60.5818420
0000000580,   7.00000000 ,   8.00000000 ,   4.00000000 ,   4.87144578 ,   4.87144578 ,   60.5827241
0000000581,   8.00000000 ,   8.00000000 ,   4.00000000 ,   4.87290388 ,   4.87290388 ,   60.5849530
0000000582,   9.00000000 ,   8.00000000 ,   4.00000000 ,   4.87535345 ,   4.87535345 ,   60.5891494
0000000583,   10.0000000 ,   8.00000000 ,   4.00000000 ,   4.87735050 ,   4.87735050 ,   60.5931867
0000000584,   0.00000000 ,   9.00000000 ,   4.00000000 ,   4.64265081 ,   4.64265081 ,   60.6689284
0000000585,   1.00000000 ,   9.00000000 ,   4.00000000 ,   4.63772971 ,   4.63772971 ,   60.6545365
0000000586,   2.00000000 ,   9.00000000 ,   4.00000000 ,   4.63264156 ,   4.63264156 ,   60.6426075
0000000587,   3.00000000 ,   9.00000000 ,   4.00000000 ,   4.62994523 ,   4.62994523 ,   60.6371394
0000000588,   4.00000000 ,   9.00000000 ,   4.00000000 ,   4.62887926 ,   4.62887926 ,   60.6351931
0000000589,   5.00000000 ,   9.00000000 ,   4.00000000 ,   4.62861564 ,   4.62861564 ,   60.6347407
0000000590,   6.00000000 ,   9.00000000 ,   4.00000000 ,   4.62887926 ,   4.62887926 ,   60.6351931
0000000591,   7.00000000 ,   9.00000000 ,   4.00000000 ,   4.62994523 ,   4.62994523 ,   60.6371394
0000000592,   8.00000000 ,   9.00000000 ,   4.00000000 ,   4.63264156 ,   4.63264156 ,   60.6426075
0000000593,   9.00000000 ,   9.00000000 ,   4.00000000 ,   4.63772971 ,   4.63772971 ,   60.6545365
0000000594,   10.0000000 ,   9.00000000 ,   4.00000000 ,   4.64265081 ,   4.64265081 ,   60.6689284
0000000595,   0.00000000 ,   10.0000000 ,   4.00000000 ,   4.00000000 ,   4.00000000 ,   60.8231873
0000000596,   1.00000000 ,   10.0000000 ,   4.00000000 ,   4.00000000 ,   4.00000000 ,   60.7858934
0000000597,   2.00000000 ,   10.0000000 ,   4.00000000 ,   4.00000000 ,   4.00000000 ,   60.7619356
0000000598,   3.00000000 ,   10.0000000 ,   4.00000000 ,   4.00000000 ,   4.00000000 ,   60.7524215
0000000599,   4.00000000 ,   10.0000000 ,   4.00000000 ,   4.00000000 ,   4.00000000 ,   60.7493284
0000000600,   5.00000000 ,   10.0000000 ,   4.00000000 ,   4.00000000 ,   4.00000000 ,   60.7486441
0000000601,   6.00000000 ,   10.0000000 ,   4.00000000 ,   4.00000000 ,   4.00000000 ,   60.7493284
0000000602,   7.00000000 ,   10.0000000 ,   4.00000000 ,   4.00000000 ,   4.00000000 ,   60.7524215
0000000603,   8.00000000 ,   10.0000000 ,   4.00000000 ,   4.00000000 ,   4.00000000 ,   60.7619356
0000000604,   9.00000000 ,   10.0000000 ,   4.00000000 ,   4.00000000 ,   4.00000000 ,   60.7858934
0000000605,   10.0000000 ,   10.0000000 ,   4.00000000 ,   4.00000000 ,   4.00000000 ,   60.8231873
0000000606,   0.00000000 ,   0.00000000 ,   5.00000000 ,   6.00000000 ,   6.00000000 ,   60.1120342
0000000607,   1.00000000 ,   0.00000000 ,   5.00000000 ,   6.00000000 ,   6.00000000 ,   60.1120342
0000000608,   2.00000000 ,   0.00000000 ,   5.00000000 ,   6.00000000 ,   6.00000000 ,   60.1120342
0000000609,   3.00000000 ,   0.00000000 ,   5.00000000 ,   6.00000000 ,   6.00000000 ,   60.1120342
0000000610,   4.00000000 ,   0.00000000 ,   5.00000000 ,   6.00000000 ,   6.00000000 ,   60.1120342
0000000611,   5.00000000 ,   0.00000000 ,   5.00000000 ,   6.00000000 ,   6.00000000 ,   60.1120342
0000000612,   6.00000000 ,   0.00000000 ,   5.00000000 ,   6.00000000 ,   6.00000000 ,   60.1120342
0000000613,   7.00000000 ,   0.00000000 ,   5.00000000 ,   6.00000000 ,   6.00000000 ,   60.1120342
0000000614,   8.00000000 ,   0.00000000 ,   5.00000000 ,   6.00000000 ,   6.00000000 ,   60.1120342
0000000615,   9.00000000 ,   0.00000000 ,   5.00000000 ,   6.00000000 ,   6.00000000 ,   60.1120342
0000000616,   10.0000000 ,   0.00000000 ,   5.00000000 ,   6.00000000 ,   6.00000000 ,   60.1120342
0000000617,   0.00000000 ,   1.00000000 ,   5.00000000 ,   5.64653764 ,   5.64653764 ,   60.1255948
0000000618,   1.00000000 ,   1.00000000 ,   5.00000000 ,   5.64653756 ,   5.64653756 ,   60.1255948
0000000619,   2.00000000 ,   1.00000000 ,   5.00000000 ,   5.64653738 ,   5.64653738 ,   60.1255947
0000000620,   3.00000000 ,   1.00000000 ,   5.00000000 ,   5.64653722 ,   5.64653722 ,   60.1255946
0000000621,   4.00000000 ,   1.00000000 ,   5.00000000 ,   5.64653712 ,   5.64653712 ,   60.1255945
0000000622,   5.00000000 ,   1.00000000 ,   5.00000000 ,   5.64653709 ,   5.64653709 ,   60.1255945
0000000623,   6.00000000 ,   1.00000000 ,   5.00000000 ,   5.64653712 ,   5.64653712 ,   60.1255945
0000000624,   7.00000000 ,   1.00000000 ,   5.00000000 ,   5.64653722 ,   5.64653722 ,   60.1255946
0000000625,   8.00000000 ,   1.00000000 ,   5.00000000 ,   5.64653738 ,   5.64653738 ,   60.1255947
0000000626,   9.00000000 ,   1.00000000 ,   5.00000000 ,   5.64653756 ,   5.64653756 ,   60.1255948
0000000627,   10.0000000 ,   1.00000000 ,   5.00000000 ,   5.64653764 ,   5.64653764 ,   60.1255948
0000000628,   0.00000000 ,   2.00000000 ,   5.00000000 ,   5.43396117 ,   5.43396117 ,   60.1358879
0000000629,   1.00000000 ,   2.00000000 ,   5.00000000 ,   5.43396075 ,   5.43396075 ,   60.1358876
0000000630,   2.00000000 ,   2.00000000 ,   5.00000000 ,   5.43395985 ,   5.43395985 ,   60.1358870
0000000631,   3.00000000 ,   2.00000000 ,   5.00000000 ,   5.43395898 ,   5.43395898 ,   60.1358864
0000000632,   4.00000000 ,   2.00000000 ,   5.00000000 ,   5.43395844 ,   5.43395844 ,   60.1358861
0000000633,   5.00000000 ,   2.00000000 ,   5.00000000 ,   5.43395826 ,   5.43395826 ,   60.1358859
0000000634,   6.00000000 ,   2.00000000 ,   5.00000000 ,   5.43395844 ,   5.43395844 ,   60.1358861
0000000635,   7.00000000 ,   2.00000000 ,   5.00000000 ,   5.43395898 ,   5.43395898 ,   60.1358864
0000000636,   8.00000000 ,   2.00000000 ,   5.00000000 ,   5.43395985 ,   5.43395985 ,   60.1358870
0000000637,   9.00000000 ,   2.00000000 ,   5.00000000 ,   5.43396075 ,   5.43396075 ,   60.1358876
0000000638,   10.0000000 ,   2.00000000 ,   5.00000000 ,   5.43396117 ,   5.43396117 ,   60.1358879
0000000639,   0.00000000 ,   3.00000000 ,   5.00000000 ,   5.31197016 ,   5.31197016 ,   60.1340360
0000000640,   1.00000000 ,   3.00000000 ,   5.00000000 ,   5.31196837 ,   5.31196837 ,   60.1340348
0000000641,   2.00000000 ,   3.00000000 ,   5.00000000 ,   5.31196459 ,   5.31196459 ,   60.1340322
0000000642,   3.00000000 ,   3.00000000 ,   5.00000000 ,   5.31196106 ,   5.31196106 ,   60.1340298
0000000643,   4.00000000 ,   3.00000000 ,   5.00000000 ,   5.31195888 ,   5.31195888 ,   60.1340283
0000000644,   5.00000000 ,   3.00000000 ,   5.00000000 ,   5.31195817 ,   5.31195817 ,   60.1340279
0000000645,   6.00000000 ,   3.00000000 ,   5.00000000 ,   5.31195888 ,   5.31195888 ,   60.1340283
0000000646,   7.00000000 ,   3.00000000 ,   5.00000000 ,   5.31196106 ,   5.31196106 ,   60.1340298
0000000647,   8.00000000 ,   3.00000000 ,   5.00000000 ,   5.31196459 ,   5.31196459 ,   60.1340322
0000000648,   9.00000000 ,   3.00000000 ,   5.00000000 ,   5.31196837 ,   5.31196837 ,   60.1340348
0000000649,   10.0000000 ,   3.00000000 ,   5.00000000 ,   5.31197016 ,   5.31197016 ,   60.1340360
0000000650,   0.00000000 ,   4.00000000 ,   5.00000000 ,   5.21360736 ,   5.21360736 ,   60.1219714
0000000651,   1.00000000 ,   4.00000000 ,   5.00000000 ,   5.21360018 ,   5.21360018 ,   60.1219663
0000000652,   2.00000000 ,   4.00000000 ,   5.00000000 ,   5.21358569 ,   5.21358569 ,   60.1219561
0000000653,   3.00000000 ,   4.00000000 ,   5.00000000 ,   5.21357278 ,   5.21357278 ,   60.1219473
0000000654,   4.00000000 ,   4.00000000 ,   5.00000000 ,   5.21356505 ,   5.21356505 ,   60.1219421
0000000655,   5.00000000 ,   4.00000000 ,   5.00000000 ,   5.21356259 ,   5.21356259 ,   60.1219404
0000000656,   6.00000000 ,   4.00000000 ,   5.00000000 ,   5.21356505 ,   5.21356505 ,   60.1219421
0000000657,   7.00000000 ,   4.00000000 ,   5.00000000 ,   5.21357278 ,   5.21357278 ,   60.1219473
0000000658,   8.00000000 ,   4.00000000 ,   5.00000000 ,   5.21358569 ,   5.21358569 ,   60.1219561
0000000659,   9.00000000 ,   4.00000000 ,   5.00000000 ,   5.21360018 ,   5.21360018 ,   60.1219663
0000000660,   10.0000000 ,   4.00000000 ,   5.00000000 ,   5.21360736 ,   5.21360736 ,   60.1219714
0000000661,   0.00000000 ,   5.00000000 ,   5.00000000 ,   5.11698125 ,   5.11698125 ,   60.1040936
0000000662,   1.00000000 ,   5.00000000 ,   5.00000000 ,   5.11695387 ,   5.11695387 ,   60.1040726
0000000663,   2.00000000 ,   5.00000000 ,   5.00000000 ,   5.11690191 ,   5.11690191 ,   60.1040345
0000000664,   3.00000000 ,   5.00000000 ,   5.00000000 ,   5.11685811 ,   5.11685811 ,   60.1040035
0000000665,   4.00000000 ,   5.00000000 ,   5.00000000 ,   5.11683311 ,   5.11683311 ,   60.1039863
0000000666,   5.00000000 ,   5.00000000 ,   5.00000000 ,   5.11682539 ,   5.11682539 ,   60.1039810
0000000667,   6.00000000 ,   5.00000000 ,   5.00000000 ,   5.11683311 ,   5.11683311 ,   60.1039863
0000000668,   7.00000000 ,   5.00000000 ,   5.00000000 ,   5.11685811 ,   5.11685811 ,   60.1040035
0000000669,   8.00000000 ,   5.00000000 ,   5.00000000 ,   5.11690191 ,   5.11690191 ,   60.1040345
0000000670,   9.00000000 ,   5.00000000 ,   5.00000000 ,   5.11695387 ,   5.11695387 ,   60.1040726
0000000671,   10.0000000 ,   5.00000000 ,   5.00000000 ,   5.11698125 ,   5.11698125 ,   60.1040936
0000000672,   0.00000000 ,   6.00000000 ,   5.00000000 ,   5.01823514 ,   5.01823514 ,   60.0845749
0000000673,   1.00000000 ,   6.00000000 ,   5.00000000 ,   5.01813686 ,   5.01813686 ,   60.0844929
0000000674,   2.00000000 ,   6.00000000 ,   5.00000000 ,   5.01796394 ,   5.01796394 ,   60.0843574
0000000675,   3.00000000 ,   6.00000000 ,   5.00000000 ,   5.01782761 ,   5.01782761 ,   60.0842557
0000000676,   4.00000000 ,   6.00000000 ,   5.00000000 ,   5.01775400 ,   5.01775400 ,   60.0842028
0000000677,   5.00000000 ,   6.00000000 ,   5.00000000 ,   5.01773201 ,   5.01773201 ,   60.0841874
0000000678,   6.00000000 ,   6.00000000 ,   5.00000000 ,   5.01775400 ,   5.01775400 ,   60.0842028
0000000679,   7.00000000 ,   6.00000000 ,   5.00000000 ,   5.01782761 ,   5.01782761 ,   60.0842557
0000000680,   8.00000000 ,   6.00000000 ,   5.00000000 ,   5.01796394 ,   5.01796394 ,   60.0843574
0000000681,   9.00000000 ,   6.00000000 ,   5.00000000 ,   5.01813686 ,   5.01813686 ,   60.0844929
0000000682,   10.0000000 ,   6.00000000 ,   5.00000000 ,   5.01823514 ,   5.01823514 ,   60.0845749
0000000683,   0.00000000 ,   7.00000000 ,   5.00000000 ,   4.91316286 ,   4.91316286 ,   60.0675799
0000000684,   1.00000000 ,   7.00000000 ,   5.00000000 ,   4.91283994 ,   4.91283994 ,   60.0672768
0000000685,   2.00000000 ,   7.00000000 ,   5.00000000 ,   4.91232203 ,   4.91232203 ,   60.0668316
0000000686,   3.00000000 ,   7.00000000 ,   5.00000000 ,   4.91194385 ,   4.91194385 ,   60.0665270
0000000687,   4.00000000 ,   7.00000000 ,   5.00000000 ,   4.91175205 ,   4.91175205 ,   60.0663800
0000000688,   5.00000000 ,   7.00000000 ,   5.00000000 ,   4.91169689 ,   4.91169689 ,   60.0663389
0000000689,   6.00000000 ,   7.00000000 ,   5.00000000 ,   4.91175205 ,   4.91175205 ,   60.0663800
0000000690,   7.00000000 ,   7.00000000 ,   5.00000000 ,   4.91194385 ,   4.91194385 ,   60.0665270
0000000691,   8.00000000 ,   7.00000000 ,   5.00000000 ,   4.91232203 ,   4.91232203 ,   60.0668316
0000000692,   9.00000000 ,   7.00000000 ,   5.00000000 ,   4.91283994 ,   4.91283994 ,   60.0672768
0000000693,   10.0000000 ,   7.00000000 ,   5.00000000 ,   4.91316286 ,   4.91316286 ,   60.0675799
0000000694,   0.00000000 ,   8.00000000 ,   5.00000000 ,   4.77763532 ,   4.77763532 ,   60.0589997
0000000695,   1.00000000 ,   8.00000000 ,   5.00000000 ,   4.77672478 ,   4.77672478 ,   60.0579792
0000000696,   2.00000000 ,   8.00000000 ,   5.00000000 ,   4.77541788 ,   4.77541788 ,   60.0566794
0000000697,   3.00000000 ,   8.00000000 ,   5.00000000 ,   4.77454199 ,   4.77454199 ,   60.0558789
0000000698,   4.00000000 ,   8.00000000 ,   5.00000000 ,   4.77412700 ,   4.77412700 ,   60.0555229
0000000699,   5.00000000 ,   8.00000000 ,   5.00000000 ,   4.77401246 ,   4.77401246 ,   60.0554282
0000000700,   6.00000000 ,   8.00000000 ,   5.00000000 ,   4.77412700 ,   4.77412700 ,   60.0555229
0000000701,   7.00000000 ,   8.00000000 ,   5.00000000 ,   4.77454199 ,   4.77454199 ,   60.0558789
0000000702,   8.00000000 ,   8.00000000 ,   5.00000000 ,   4.77541788 ,   4.77541788 ,   60.0566794
0000000703,   9.00000000 ,   8.00000000 ,   5.00000000 ,   4.77672478 ,   4.77672478 ,   60.0579792
0000000704,   10.0000000 ,   8.00000000 ,   5.00000000 ,   4.77763532 ,   4.77763532 ,   60.0589997
0000000705,   0.00000000 ,   9.00000000 ,   5.00000000 ,   4.52688964 ,   4.52688964 ,   60.0673175
0000000706,   1.00000000 ,   9.00000000 ,   5.00000000 ,   4.52506954 ,   4.52506954 ,   60.0644110
0000000707,   2.00000000 ,   9.00000000 ,   5.00000000 ,   4.52277299 ,   4.52277299 ,   60.0612822
0000000708,   3.00000000 ,   9.00000000 ,   5.00000000 ,   4.52136912 ,   4.52136912 ,   60.0595629
0000000709,   4.00000000 ,   9.00000000 ,   5.00000000 ,   4.52074891 ,   4.52074891 ,   60.0588601
0000000710,   5.00000000 ,   9.00000000 ,   5.00000000 ,   4.52058468 ,   4.52058468 ,   60.0586822
0000000711,   6.00000000 ,   9.00000000 ,   5.00000000 ,   4.52074891 ,   4.52074891 ,   60.0588601
0000000712,   7.00000000 ,   9.00000000 ,   5.00000000 ,   4.52136912 ,   4.52136912 ,   60.0595629
0000000713,   8.00000000 ,   9.00000000 ,   5.00000000 ,   4.52277299 ,   4.52277299 ,   60.0612822
0000000714,   9.00000000 ,   9.00000000 ,   5.00000000 ,   4.52506954 ,   4.52506954 ,   60.0644110
0000000715,   10.0000000 ,   9.00000000 ,   5.00000000 ,   4.52688964 ,   4.52688964 ,   60.0673175
0000000716,   0.00000000 ,   10.0000000 ,   5.00000000 ,   4.00000000 ,   4.00000000 ,   60.0911189
0000000717,   1.00000000 ,   10.0000000 ,   5.00000000 ,   4.00000000 ,   4.00000000 ,   60.0853381
0000000718,   2.00000000 ,   10.0000000 ,   5.00000000 ,   4.00000000 ,   4.00000000 ,   60.0801094
0000000719,   3.00000000 ,   10.0000000 ,   5.00000000 ,   4.00000000 ,   4.00000000 ,   60.0775154
0000000720,   4.00000000 ,   10.0000000 ,   5.00000000 ,   4.00000000 ,   4.00000000 ,   60.0765240
0000000721,   5.00000000 ,   10.0000000 ,   5.00000000 ,   4.00000000 ,   4.00000000 ,   60.0762822
0000000722,   6.00000000 ,   10.0000000 ,   5.00000000 ,   4.00000000 ,   4.00000000 ,   60.0765240
0000000723,   7.00000000 ,   10.0000000 ,   5.00000000 ,   4.00000000 ,   4.00000000 ,   60.0775154
0000000724,   8.00000000 ,   10.0000000 ,   5.00000000 ,   4.00000000 ,   4.00000000 ,   60.0801094
0000000725,   9.00000000 ,   10.0000000 ,   5.00000000 ,   4.00000000 ,   4.00000000 ,   60.0853381
0000000726,   10.0000000 ,   10.0000000 ,   5.00000000 ,   4.00000000 ,   4.00000000 ,   60.0911189
0000000727,   0.00000000 ,   0.00000000 ,   6.00000000 ,   6.00000000 ,   6.00000000 ,   60.0194499
0000000728,   1.00000000 ,   0.00000000 ,   6.00000000 ,   6.00000000 ,   6.00000000 ,   60.0194499
0000000729,   2.00000000 ,   0.00000000 ,   6.00000000 ,   6.00000000 ,   6.00000000 ,   60.0194499
0000000730,   3.00000000 ,   0.00000000 ,   6.00000000 ,   6.00000000 ,   6.00000000 ,   60.0194498
0000000731,   4.00000000 ,   0.00000000 ,   6.00000000 ,   6.00000000 ,   6.00000000 ,   60.0194498
0000000732,   5.00000000 ,   0.00000000 ,   6.00000000 ,   6.00000000 ,   6.00000000 ,   60.0194498
0000000733,   6.00000000 ,   0.00000000 ,   6.00000000 ,   6.00000000 ,   6.00000000 ,   60.0194498
0000000734,   7.00000000 ,   0.00000000 ,   6.00000000 ,   6.00000000 ,   6.00000000 ,   60.0194498
0000000735,   8.00000000 ,   0.00000000 ,   6.00000000 ,   6.00000000 ,   6.00000000 ,   60.0194499
0000000736,   9.00000000 ,   0.00000000 ,   6.00000000 ,   6.00000000 ,   6.00000000 ,   60.0194499
0000000737,   10.0000000 ,   0.00000000 ,   6.00000000 ,   6.00000000 ,   6.00000000 ,   60.0194499
0000000738,   0.00000000 ,   1.00000000 ,   6.00000000 ,   5.67376551 ,   5.67376551 ,   60.0094311
0000000739,   1.00000000 ,   1.00000000 ,   6.00000000 ,   5.67376547 ,   5.67376547 ,   60.0094311
0000000740,   2.00000000 ,   1.00000000 ,   6.00000000 ,   5.67376538 ,   5.67376538 ,   60.0094310
0000000741,   3.00000000 ,   1.00000000 ,   6.00000000 ,   5.67376529 ,   5.67376529 ,   60.0094310
0000000742,   4.00000000 ,   1.00000000 ,   6.00000000 ,   5.67376523 ,   5.67376523 ,   60.0094309
0000000743,   5.00000000 ,   1.00000000 ,   6.00000000 ,   5.67376520 ,   5.67376520 ,   60.0094309
0000000744,   6.00000000 ,   1.00000000 ,   6.00000000 ,   5.67376523 ,   5.67376523 ,   60.0094309
0000000745,   7.00000000 ,   1.00000000 ,   6.00000000 ,   5.67376529 ,   5.67376529 ,   60.0094310
0000000746,   8.00000000 ,   1.00000000 ,   6.00000000 ,   5.67376538 ,   5.67376538 ,   60.0094310
0000000747,   9.00000000 ,   1.00000000 ,   6.00000000 ,   5.67376547 ,   5.67376547 ,   60.0094311
0000000748,   10.0000000 ,   1.00000000 ,   6.00000000 ,   5.67376551 ,   5.67376551 ,   60.0094311
0000000749,   0.00000000 ,   2.00000000 ,   6.00000000 ,   5.44697325 ,   5.44697325 ,   59.9789032
0000000750,   1.00000000 ,   2.00000000 ,   6.00000000 ,   5.44697307 ,   5.44697307 ,   59.9789031
0000000751,   2.00000000 ,   2.00000000 ,   6.00000000 ,   5.44697267 ,   5.44697267 ,   59.9789028
0000000752,   3.00000000 ,   2.00000000 ,   6.00000000 ,   5.44697227 ,   5.44697227 ,   59.9789025
0000000753,   4.00000000 ,   2.00000000 ,   6.00000000 ,   5.44697200 ,   5.44697200 ,   59.9789023
0000000754,   5.00000000 ,   2.00000000 ,   6.00000000 ,   5.44697191 ,   5.44697191 ,   59.9789023
0000000755,   6.00000000 ,   2.00000000 ,   6.00000000 ,   5.44697200 ,   5.44697200 ,   59.9789023
0000000756,   7.00000000 ,   2.00000000 ,   6.00000000 ,   5.44697227 ,   5.44697227 ,   59.9789025
0000000757,   8.00000000 ,   2.00000000 ,   6.00000000 ,   5.44697267 ,   5.44697267 ,   59.9789028
0000000758,   9.00000000 ,   2.00000000 ,   6.00000000 ,   5.44697307 ,   5.44697307 ,   59.9789031
0000000759,   10.0000000 ,   2.00000000 ,   6.00000000 ,   5.44697325 ,   5.44697325 ,   59.9789032
0000000760,   0.00000000 ,   3.00000000 ,   6.00000000 ,   5.27179526 ,   5.27179526 ,   59.9302500
0000000761,   1.00000000 ,   3.00000000 ,   6.00000000 ,   5.27179455 ,   5.27179455 ,   59.9302495
0000000762,   2.00000000 ,   3.00000000 ,   6.00000000 ,   5.27179301 ,   5.27179301 ,   59.9302484
0000000763,   3.00000000 ,   3.00000000 ,   6.00000000 ,   5.27179152 ,   5.27179152 ,   59.9302473
0000000764,   4.00000000 ,   3.00000000 ,   6.00000000 ,   5.27179057 ,   5.27179057 ,   59.9302467
0000000765,   5.00000000 ,   3.00000000 ,   6.00000000 ,   5.27179025 ,   5.27179025 ,   59.9302464
0000000766,   6.00000000 ,   3.00000000 ,   6.00000000 ,   5.27179057 ,   5.27179057 ,   59.9302467
0000000767,   7.00000000 ,   3.00000000 ,   6.00000000 ,   5.27179152 ,   5.27179152 ,   59.9302473
0000000768,   8.00000000 ,   3.00000000 ,   6.00000000 ,   5.27179301 ,   5.27179301 ,   59.9302484
0000000769,   9.00000000 ,   3.00000000 ,   6.00000000 ,   5.27179455 ,   5.27179455 ,   59.9302495
0000000770,   10.0000000 ,   3.00000000 ,   6.00000000 ,   5.27179526 ,   5.27179526 ,   59.9302500
0000000771,   0.00000000 ,   4.00000000 ,   6.00000000 ,   5.10744243 ,   5.10744243 ,   59.8689511
0000000772,   1.00000000 ,   4.00000000 ,   6.00000000 ,   5.10743979 ,   5.10743979 ,   59.8689491
0000000773,   2.00000000 ,   4.00000000 ,   6.00000000 ,   5.10743427 ,   5.10743427 ,   59.8689451
0000000774,   3.00000000 ,   4.00000000 ,   6.00000000 ,   5.10742915 ,   5.10742915 ,   59.8689414
0000000775,   4.00000000 ,   4.00000000 ,   6.00000000 ,   5.10742598 ,   5.10742598 ,   59.8689392
0000000776,   5.00000000 ,   4.00000000 ,   6.00000000 ,   5.10742495 ,   5.10742495 ,   59.8689384
0000000777,   6.00000000 ,   4.00000000 ,   6.00000000 ,   5.10742598 ,   5.10742598 ,   59.8689392
0000000778,   7.00000000 ,   4.00000000 ,   6.00000000 ,   5.10742915 ,   5.10742915 ,   59.8689414
0000000779,   8.00000000 ,   4.00000000 ,   6.00000000 ,   5.10743427 ,   5.10743427 ,   59.8689451
0000000780,   9.00000000 ,   4.00000000 ,   6.00000000 ,   5.10743979 ,   5.10743979 ,   59.8689491
0000000781,   10.0000000 ,   4.00000000 ,   6.00000000 ,   5.10744243 ,   5.10744243 ,   59.8689511
0000000782,   0.00000000 ,   5.00000000 ,   6.00000000 ,   4.94208042 ,   4.94208042 ,   59.8011303
0000000783,   1.00000000 ,   5.00000000 ,   6.00000000 ,   4.94207107 ,   4.94207107 ,   59.8011232
0000000784,   2.00000000 ,   5.00000000 ,   6.00000000 ,   4.94205246 ,   4.94205246 ,   59.8011092
0000000785,   3.00000000 ,   5.00000000 ,   6.00000000 ,   4.94203605 ,   4.94203605 ,   59.8010971
0000000786,   4.00000000 ,   5.00000000 ,   6.00000000 ,   4.94202632 ,   4.94202632 ,   59.8010900
0000000787,   5.00000000 ,   5.00000000 ,   6.00000000 ,   4.94202324 ,   4.94202324 ,   59.8010878
0000000788,   6.00000000 ,   5.00000000 ,   6.00000000 ,   4.94202632 ,   4.94202632 ,   59.8010900
0000000789,   7.00000000 ,   5.00000000 ,   6.00000000 ,   4.94203605 ,   4.94203605 ,   59.8010971
0000000790,   8.00000000 ,   5.00000000 ,   6.00000000 ,   4.94205246 ,   4.94205246 ,   59.8011092
0000000791,   9.00000000 ,   5.00000000 ,   6.00000000 ,   4.94207107 ,   4.94207107 ,   59.8011232
0000000792,   10.0000000 ,   5.00000000 ,   6.00000000 ,   4.94208042 ,   4.94208042 ,   59.8011303
0000000793,   0.00000000 ,   6.00000000 ,   6.00000000 ,   4.77453427 ,   4.77453427 ,   59.7322008
0000000794,   1.00000000 ,   6.00000000 ,   6.00000000 ,   4.77450331 ,   4.77450331 ,   59.7321757
0000000795,   2.00000000 ,   6.00000000 ,   6.00000000 ,   4.77444540 ,   4.77444540 ,   59.7321304
0000000796,   3.00000000 ,   6.00000000 ,   6.00000000 ,   4.77439721 ,   4.77439721 ,   59.7320936
0000000797,   4.00000000 ,   6.00000000 ,   6.00000000 ,   4.77437000 ,   4.77437000 ,   59.7320733
0000000798,   5.00000000 ,   6.00000000 ,   6.00000000 ,   4.77436164 ,   4.77436164 ,   59.7320671
0000000799,   6.00000000 ,   6.00000000 ,   6.00000000 ,   4.77437000 ,   4.77437000 ,   59.7320733
0000000800,   7.00000000 ,   6.00000000 ,   6.00000000 ,   4.77439721 ,   4.77439721 ,   59.7320936
0000000801,   8.00000000 ,   6.00000000 ,   6.00000000 ,   4.77444540 ,   4.77444540 ,   59.7321304
0000000802,   9.00000000 ,   6.00000000 ,   6.00000000 ,   4.77450331 ,   4.77450331 ,   59.7321757
0000000803,   10.0000000 ,   6.00000000 ,   6.00000000 ,   4.77453427 ,   4.77453427 ,   59.7322008
0000000804,   0.00000000 ,   7.00000000 ,   6.00000000 ,   4.60365598 ,   4.60365598 ,   59.6667144
0000000805,   1.00000000 ,   7.00000000 ,   6.00000000 ,   4.60356329 ,   4.60356329 ,   59.6666330
0000000806,   2.00000000 ,   7.00000000 ,   6.00000000 ,   4.60340230 ,   4.60340230 ,   59.6664985
0000000807,   3.00000000 ,   7.00000000 ,   6.00000000 ,   4.60327680 ,   4.60327680 ,   59.6663973
0000000808,   4.00000000 ,   7.00000000 ,   6.00000000 ,   4.60320964 ,   4.60320964 ,   59.6663447
0000000809,   5.00000000 ,   7.00000000 ,   6.00000000 ,   4.60318968 ,   4.60318968 ,   59.6663292
0000000810,   6.00000000 ,   7.00000000 ,   6.00000000 ,   4.60320964 ,   4.60320964 ,   59.6663447
0000000811,   7.00000000 ,   7.00000000 ,   6.00000000 ,   4.60327680 ,   4.60327680 ,   59.6663973
0000000812,   8.00000000 ,   7.00000000 ,   6.00000000 ,   4.60340230 ,   4.60340230 ,   59.6664985
0000000813,   9.00000000 ,   7.00000000 ,   6.00000000 ,   4.60356329 ,   4.60356329 ,   59.6666330
0000000814,   10.0000000 ,   7.00000000 ,   6.00000000 ,   4.60365598 ,   4.60365598 ,   59.6667144
0000000815,   0.00000000 ,   8.00000000 ,   6.00000000 ,   4.41951788 ,   4.41951788 ,   59.6094010
0000000816,   1.00000000 ,   8.00000000 ,   6.00000000 ,   4.41928294 ,   4.41928294 ,   59.6091653
0000000817,   2.00000000 ,   8.00000000 ,   6.00000000 ,   4.41890898 ,   4.41890898 ,   59.6088151
0000000818,   3.00000000 ,   8.00000000 ,   6.00000000 ,   4.41863736 ,   4.41863736 ,   59.6085729
0000000819,   4.00000000 ,   8.00000000 ,   6.00000000 ,   4.41850010 ,   4.41850010 ,   59.6084548
0000000820,   5.00000000 ,   8.00000000 ,   6.00000000 ,   4.41846070 ,   4.41846070 ,   59.6084215
0000000821,   6.00000000 ,   8.00000000 ,   6.00000000 ,   4.41850010 ,   4.41850010 ,   59.6084548
0000000822,   7.00000000 ,   8.00000000 ,   6.00000000 ,   4.41863736 ,   4.41863736 ,   59.6085729
0000000823,   8.00000000 ,   8.00000000 ,   6.00000000 ,   4.41890898 ,   4.41890898 ,   59.6088151
0000000824,   9.00000000 ,   8.00000000 ,   6.00000000 ,   4.41928294 ,   4.41928294 ,   59.6091653
0000000825,   10.0000000 ,   8.00000000 ,   6.00000000 ,   4.41951788 ,   4.41951788 ,   59.6094010
0000000826,   0.00000000 ,   9.00000000 ,   6.00000000 ,   4.19740841 ,   4.19740841 ,   59.5681161
0000000827,   1.00000000 ,   9.00000000 ,   6.00000000 ,   4.19699332 ,   4.19699332 ,   59.5675504
0000000828,   2.00000000 ,   9.00000000 ,   6.00000000 ,   4.19639392 ,   4.19639392 ,   59.5668075
0000000829,   3.00000000 ,   9.00000000 ,   6.00000000 ,   4.19598911 ,   4.19598911 ,   59.5663366
0000000830,   4.00000000 ,   9.00000000 ,   6.00000000 ,   4.19579573 ,   4.19579573 ,   59.5661217
0000000831,   5.00000000 ,   9.00000000 ,   6.00000000 ,   4.19574204 ,   4.19574204 ,   59.5660635
0000000832,   6.00000000 ,   9.00000000 ,   6.00000000 ,   4.19579573 ,   4.19579573 ,   59.5661217
0000000833,   7.00000000 ,   9.00000000 ,   6.00000000 ,   4.19598911 ,   4.19598911 ,   59.5663366
0000000834,   8.00000000 ,   9.00000000 ,   6.00000000 ,   4.19639392 ,   4.19639392 ,   59.5668075
0000000835,   9.00000000 ,   9.00000000 ,   6.00000000 ,   4.19699332 ,   4.19699332 ,   59.5675504
0000000836,   10.0000000 ,   9.00000000 ,   6.00000000 ,   4.19740841 ,   4.19740841 ,   59.5681161
0000000837,   0.00000000 ,   10.0000000 ,   6.00000000 ,   4.00000000 ,   4.00000000 ,   59.5587133
0000000838,   1.00000000 ,   10.0000000 ,   6.00000000 ,   4.00000000 ,   4.00000000 ,   59.5577729
0000000839,   2.00000000 ,   10.0000000 ,   6.00000000 ,   4.00000000 ,   4.00000000 ,   59.5566734
0000000840,   3.00000000 ,   10.0000000 ,   6.00000000 ,   4.00000000 ,   4.00000000 ,   59.5560243
0000000841,   4.00000000 ,   10.0000000 ,   6.00000000 ,   4.00000000 ,   4.00000000 ,   59.5557418
0000000842,   5.00000000 ,   10.0000000 ,   6.00000000 ,   4.00000000 ,   4.00000000 ,   59.5556674
0000000843,   6.00000000 ,   10.0000000 ,   6.00000000 ,   4.00000000 ,   4.00000000 ,   59.5557418
0000000844,   7.00000000 ,   10.0000000 ,   6.00000000 ,   4.00000000 ,   4.00000000 ,   59.5560243
0000000845,   8.00000000 ,   10.0000000 ,   6.00000000 ,   4.00000000 ,   4.00000000 ,   59.5566734
0000000846,   9.00000000 ,   10.0000000 ,   6.00000000 ,   4.00000000 ,   4.00000000 ,   59.5577729
0000000847,   10.0000000 ,   10.0000000 ,   6.00000000 ,   4.00000000 ,   4.00000000 ,   59.5587133
0000000848,   0.00000000 ,   0.00000000 ,   7.00000000 ,   6.00000000 ,   6.00000000 ,   59.9860166
0000000849,   1.00000000 ,   0.00000000 ,   7.00000000 ,   6.00000000 ,   6.00000000 ,   59.9860166
0000000850,   2.00000000 ,   0.00000000 ,   7.00000000 ,   6.00000000 ,   6.00000000 ,   59.9860166
0000000851,   3.00000000 ,   0.00000000 ,   7.00000000 ,   6.00000000 ,   6.00000000 ,   59.9860166
0000000852,   4.00000000 ,   0.00000000 ,   7.00000000 ,   6.00000000 ,   6.00000000 ,   59.9860166
0000000853,   5.00000000 ,   0.00000000 ,   7.00000000 ,   6.00000000 ,   6.00000000 ,   59.9860166
0000000854,   6.00000000 ,   0.00000000 ,   7.00000000 ,   6.00000000 ,   6.00000000 ,   59.9860166
0000000855,   7.00000000 ,   0.00000000 ,   7.00000000 ,   6.00000000 ,   6.00000000 ,   59.9860166
0000000856,   8.00000000 ,   0.00000000 ,   7.00000000 ,   6.00000000 ,   6.00000000 ,   59.9860166
0000000857,   9.00000000 ,   0.00000000 ,   7.00000000 ,   6.00000000 ,   6.00000000 ,   59.9860166
0000000858,   10.0000000 ,   0.00000000 ,   7.00000000 ,   6.00000000 ,   6.00000000 ,   59.9860166
0000000859,   0.00000000 ,   1.00000000 ,   7.00000000 ,   5.80704383 ,   5.80704383 ,   59.9449802
0000000860,   1.00000000 ,   1.00000000 ,   7.00000000 ,   5.80704383 ,   5.80704383 ,   59.9449802
0000000861,   2.00000000 ,   1.00000000 ,   7.00000000 ,   5.80704383 ,   5.80704383 ,   59.9449802
0000000862,   3.00000000 ,   1.00000000 ,   7.00000000 ,   5.80704383 ,   5.80704383 ,   59.9449802
0000000863,   4.00000000 ,   1.00000000 ,   7.00000000 ,   5.80704383 ,   5.80704383 ,   59.9449802
0000000864,   5.00000000 ,   1.00000000 ,   7.00000000 ,   5.80704383 ,   5.80704383 ,   59.9449802
0000000865,   6.00000000 ,   1.00000000 ,   7.00000000 ,   5.80704383 ,   5.80704383 ,   59.9449802
0000000866,   7.00000000 ,   1.00000000 ,   7.00000000 ,   5.80704383 ,   5.80704383 ,   59.9449802
0000000867,   8.00000000 ,   1.00000000 ,   7.00000000 ,   5.80704383 ,   5.80704383 ,   59.9449802
0000000868,   9.00000000 ,   1.00000000 ,   7.00000000 ,   5.80704383 ,   5.80704383 ,   59.9449802
0000000869,   10.0000000 ,   1.00000000 ,   7.00000000 ,   5.80704383 ,   5.80704383 ,   59.9449802
0000000870,   0.00000000 ,   2.00000000 ,   7.00000000 ,   5.61284582 ,   5.61284582 ,   59.8488139
0000000871,   1.00000000 ,   2.00000000 ,   7.00000000 ,   5.61284582 ,   5.61284582 ,   59.8488139
0000000872,   2.00000000 ,   2.00000000 ,   7.00000000 ,   5.61284582 ,   5.61284582 ,   59.8488139
0000000873,   3.00000000 ,   2.00000000 ,   7.00000000 ,   5.61284582 ,   5.61284582 ,   59.8488138
0000000874,   4.00000000 ,   2.00000000 ,   7.00000000 ,   5.61284582 ,   5.61284582 ,   59.8488138
0000000875,   5.00000000 ,   2.00000000 ,   7.00000000 ,   5.61284582 ,   5.61284582 ,   59.8488138
0000000876,   6.00000000 ,   2.00000000 ,   7.00000000 ,   5.61284582 ,   5.61284582 ,   59.8488138
0000000877,   7.00000000 ,   2.00000000 ,   7.00000000 ,   5.61284582 ,   5.61284582 ,   59.8488138
0000000878,   8.00000000 ,   2.00000000 ,   7.00000000 ,   5.61284582 ,   5.61284582 ,   59.8488139
0000000879,   9.00000000 ,   2.00000000 ,   7.00000000 ,   5.61284582 ,   5.61284582 ,   59.8488139
0000000880,   10.0000000 ,   2.00000000 ,   7.00000000 ,   5.61284582 ,   5.61284582 ,   59.8488139
0000000881,   0.00000000 ,   3.00000000 ,   7.00000000 ,   5.41714450 ,   5.41714450 ,   59.7061270
0000000882,   1.00000000 ,   3.00000000 ,   7.00000000 ,   5.41714450 ,   5.41714450 ,   59.7061270
0000000883,   2.00000000 ,   3.00000000 ,   7.00000000 ,   5.41714451 ,   5.41714451 ,   59.7061268
0000000884,   3.00000000 ,   3.00000000 ,   7.00000000 ,   5.41714451 ,   5.41714451 ,   59.7061267
0000000885,   4.00000000 ,   3.00000000 ,   7.00000000 ,   5.41714452 ,   5.41714452 ,   59.7061266
0000000886,   5.00000000 ,   3.00000000 ,   7.00000000 ,   5.41714452 ,   5.41714452 ,   59.7061266
0000000887,   6.00000000 ,   3.00000000 ,   7.00000000 ,   5.41714452 ,   5.41714452 ,   59.7061266
0000000888,   7.00000000 ,   3.00000000 ,   7.00000000 ,   5.41714451 ,   5.41714451 ,   59.7061267
0000000889,   8.00000000 ,   3.00000000 ,   7.00000000 ,   5.41714451 ,   5.41714451 ,   59.7061268
0000000890,   9.00000000 ,   3.00000000 ,   7.00000000 ,   5.41714450 ,   5.41714450 ,   59.7061270
0000000891,   10.0000000 ,   3.00000000 ,   7.00000000 ,   5.41714450 ,   5.41714450 ,   59.7061270
0000000892,   0.00000000 ,   4.00000000 ,   7.00000000 ,   5.21976765 ,   5.21976765 ,   59.5302070
0000000893,   1.00000000 ,   4.00000000 ,   7.00000000 ,   5.21976765 ,   5.21976765 ,   59.5302068
0000000894,   2.00000000 ,   4.00000000 ,   7.00000000 ,   5.21976766 ,   5.21976766 ,   59.5302063
0000000895,   3.00000000 ,   4.00000000 ,   7.00000000 ,   5.21976767 ,   5.21976767 ,   59.5302059
0000000896,   4.00000000 ,   4.00000000 ,   7.00000000 ,   5.21976768 ,   5.21976768 ,   59.5302056
0000000897,   5.00000000 ,   4.00000000 ,   7.00000000 ,   5.21976768 ,   5.21976768 ,   59.5302055
0000000898,   6.00000000 ,   4.00000000 ,   7.00000000 ,   5.21976768 ,   5.21976768 ,   59.5302056
0000000899,   7.00000000 ,   4.00000000 ,   7.00000000 ,   5.21976767 ,   5.21976767 ,   59.5302059
0000000900,   8.00000000 ,   4.00000000 ,   7.00000000 ,   5.21976766 ,   5.21976766 ,   59.5302063
0000000901,   9.00000000 ,   4.00000000 ,   7.00000000 ,   5.21976765 ,   5.21976765 ,   59.5302068
0000000902,   10.0000000 ,   4.00000000 ,   7.00000000 ,   5.21976765 ,   5.21976765 ,   59.5302070
0000000903,   0.00000000 ,   5.00000000 ,   7.00000000 ,   5.02063490 ,   5.02063490 ,   59.3352576
0000000904,   1.00000000 ,   5.00000000 ,   7.00000000 ,   5.02063491 ,   5.02063491 ,   59.3352568
0000000905,   2.00000000 ,   5.00000000 ,   7.00000000 ,   5.02063493 ,   5.02063493 ,   59.3352552
0000000906,   3.00000000 ,   5.00000000 ,   7.00000000 ,   5.02063495 ,   5.02063495 ,   59.3352537
0000000907,   4.00000000 ,   5.00000000 ,   7.00000000 ,   5.02063496 ,   5.02063496 ,   59.3352528
0000000908,   5.00000000 ,   5.00000000 ,   7.00000000 ,   5.02063497 ,   5.02063497 ,   59.3352525
0000000909,   6.00000000 ,   5.00000000 ,   7.00000000 ,   5.02063496 ,   5.02063496 ,   59.3352528
0000000910,   7.00000000 ,   5.00000000 ,   7.00000000 ,   5.02063495 ,   5.02063495 ,   59.3352537
0000000911,   8.00000000 ,   5.00000000 ,   7.00000000 ,   5.02063493 ,   5.02063493 ,   59.3352552
0000000912,   9.00000000 ,   5.00000000 ,   7.00000000 ,   5.02063491 ,   5.02063491 ,   59.3352568
0000000913,   10.0000000 ,   5.00000000 ,   7.00000000 ,   5.02063490 ,   5.02063490 ,   59.3352576
0000000914,   0.00000000 ,   6.00000000 ,   7.00000000 ,   4.81974272 ,   4.81974272 ,   59.1340512
0000000915,   1.00000000 ,   6.00000000 ,   7.00000000 ,   4.81974273 ,   4.81974273 ,   59.1340485
0000000916,   2.00000000 ,   6.00000000 ,   7.00000000 ,   4.81974276 ,   4.81974276 ,   59.1340432
0000000917,   3.00000000 ,   6.00000000 ,   7.00000000 ,   4.81974280 ,   4.81974280 ,   59.1340387
0000000918,   4.00000000 ,   6.00000000 ,   7.00000000 ,   4.81974282 ,   4.81974282 ,   59.1340361
0000000919,   5.00000000 ,   6.00000000 ,   7.00000000 ,   4.81974283 ,   4.81974283 ,   59.1340353
0000000920,   6.00000000 ,   6.00000000 ,   7.00000000 ,   4.81974282 ,   4.81974282 ,   59.1340361
0000000921,   7.00000000 ,   6.00000000 ,   7.00000000 ,   4.81974280 ,   4.81974280 ,   59.1340387
0000000922,   8.00000000 ,   6.00000000 ,   7.00000000 ,   4.81974276 ,   4.81974276 ,   59.1340432
0000000923,   9.00000000 ,   6.00000000 ,   7.00000000 ,   4.81974273 ,   4.81974273 ,   59.1340485
0000000924,   10.0000000 ,   6.00000000 ,   7.00000000 ,   4.81974272 ,   4.81974272 ,   59.1340512
0000000925,   0.00000000 ,   7.00000000 ,   7.00000000 ,   4.61714247 ,   4.61714247 ,   58.9368394
0000000926,   1.00000000 ,   7.00000000 ,   7.00000000 ,   4.61714250 ,   4.61714250 ,   58.9368306
0000000927,   2.00000000 ,   7.00000000 ,   7.00000000 ,   4.61714255 ,   4.61714255 ,   58.9368150
0000000928,   3.00000000 ,   7.00000000 ,   7.00000000 ,   4.61714261 ,   4.61714261 ,   58.9368027
0000000929,   4.00000000 ,   7.00000000 ,   7.00000000 ,   4.61714265 ,   4.61714265 ,   58.9367960
0000000930,   5.00000000 ,   7.00000000 ,   7.00000000 ,   4.61714266 ,   4.61714266 ,   58.9367940
0000000931,   6.00000000 ,   7.00000000 ,   7.00000000 ,   4.61714265 ,   4.61714265 ,   58.9367960
0000000932,   7.00000000 ,   7.00000000 ,   7.00000000 ,   4.61714261 ,   4.61714261 ,   58.9368027
0000000933,   8.00000000 ,   7.00000000 ,   7.00000000 ,   4.61714255 ,   4.61714255 ,   58.9368150
0000000934,   9.00000000 ,   7.00000000 ,   7.00000000 ,   4.61714250 ,   4.61714250 ,   58.9368306
0000000935,   10.0000000 ,   7.00000000 ,   7.00000000 ,   4.61714247 ,   4.61714247 ,   58.9368394
0000000936,   0.00000000 ,   8.00000000 ,   7.00000000 ,   4.41291778 ,   4.41291778 ,   58.7517504
0000000937,   1.00000000 ,   8.00000000 ,   7.00000000 ,   4.41291781 ,   4.41291781 ,   58.7517256
0000000938,   2.00000000 ,   8.00000000 ,   7.00000000 ,   4.41291790 ,   4.41291790 ,   58.7516855
0000000939,   3.00000000 ,   8.00000000 ,   7.00000000 ,   4.41291797 ,   4.41291797 ,   58.7516557
0000000940,   4.00000000 ,   8.00000000 ,   7.00000000 ,   4.41291802 ,   4.41291802 ,   58.7516403
0000000941,   5.00000000 ,   8.00000000 ,   7.00000000 ,   4.41291804 ,   4.41291804 ,   58.7516358
0000000942,   6.00000000 ,   8.00000000 ,   7.00000000 ,   4.41291802 ,   4.41291802 ,   58.7516403
0000000943,   7.00000000 ,   8.00000000 ,   7.00000000 ,   4.41291797 ,   4.41291797 ,   58.7516557
0000000944,   8.00000000 ,   8.00000000 ,   7.00000000 ,   4.41291790 ,   4.41291790 ,   58.7516855
0000000945,   9.00000000 ,   8.00000000 ,   7.00000000 ,   4.41291781 ,   4.41291781 ,   58.7517256
0000000946,   10.0000000 ,   8.00000000 ,   7.00000000 ,   4.41291778 ,   4.41291778 ,   58.7517504
0000000947,   0.00000000 ,   9.00000000 ,   7.00000000 ,   4.20716550 ,   4.20716550 ,   58.5918313
0000000948,   1.00000000 ,   9.00000000 ,   7.00000000 ,   4.20716555 ,   4.20716555 ,   58.5917738
0000000949,   2.00000000 ,   9.00000000 ,   7.00000000 ,   4.20716563 ,   4.20716563 ,   58.5916883
0000000950,   3.00000000 ,   9.00000000 ,   7.00000000 ,   4.20716570 ,   4.20716570 ,   58.5916289
0000000951,   4.00000000 ,   9.00000000 ,   7.00000000 ,   4.20716574 ,   4.20716574 ,   58.5915996
0000000952,   5.00000000 ,   9.00000000 ,   7.00000000 ,   4.20716576 ,   4.20716576 ,   58.5915913
0000000953,   6.00000000 ,   9.00000000 ,   7.00000000 ,   4.20716574 ,   4.20716574 ,   58.5915996
0000000954,   7.00000000 ,   9.00000000 ,   7.00000000 ,   4.20716570 ,   4.20716570 ,   58.5916289
0000000955,   8.00000000 ,   9.00000000 ,   7.00000000 ,   4.20716563 ,   4.20716563 ,   58.5916883
0000000956,   9.00000000 ,   9.00000000 ,   7.00000000 ,   4.20716554 ,   4.20716554 ,   58.5917738
0000000957,   10.0000000 ,   9.00000000 ,   7.00000000 ,   4.20716550 ,   4.20716550 ,   58.5918313
0000000958,   0.00000000 ,   10.0000000 ,   7.00000000 ,   4.00000000 ,   4.00000000 ,   58.5432191
0000000959,   1.00000000 ,   10.0000000 ,   7.00000000 ,   4.00000000 ,   4.00000000 ,   58.5431335
0000000960,   2.00000000 ,   10.0000000 ,   7.00000000 ,   4.00000000 ,   4.00000000 ,   58.5430151
0000000961,   3.00000000 ,   10.0000000 ,   7.00000000 ,   4.00000000 ,   4.00000000 ,   58.5429358
0000000962,   4.00000000 ,   10.0000000 ,   7.00000000 ,   4.00000000 ,   4.00000000 ,   58.5428979
0000000963,   5.00000000 ,   10.0000000 ,   7.00000000 ,   4.00000000 ,   4.00000000 ,   58.5428873
0000000964,   6.00000000 ,   10.0000000 ,   7.00000000 ,   4.00000000 ,   4.00000000 ,   58.5428979
0000000965,   7.00000000 ,   10.0000000 ,   7.00000000 ,   4.00000000 ,   4.00000000 ,   58.5429358
0000000966,   8.00000000 ,   10.0000000 ,   7.00000000 ,   4.00000000 ,   4.00000000 ,   58.5430151
0000000967,   9.00000000 ,   10.0000000 ,   7.00000000 ,   4.00000000 ,   4.00000000 ,   58.5431335
0000000968,   10.0000000 ,   10.0000000 ,   7.00000000 ,   4.00000000 ,   4.00000000 ,   58.5432191
0000000969,   0.00000000 ,   0.00000000 ,   8.00000000 ,   6.00000000 ,   6.00000000 ,   59.8178311
0000000970,   1.00000000 ,   0.00000000 ,   8.00000000 ,   6.00000000 ,   6.00000000 ,   59.8178311
0000000971,   2.00000000 ,   0.00000000 ,   8.00000000 ,   6.00000000 ,   6.00000000 ,   59.8178311
0000000972,   3.00000000 ,   0.00000000 ,   8.00000000 ,   6.00000000 ,   6.00000000 ,   59.8178311
0000000973,   4.00000000 ,   0.00000000 ,   8.00000000 ,   6.00000000 ,   6.00000000 ,   59.8178311
0000000974,   5.00000000 ,   0.00000000 ,   8.00000000 ,   6.00000000 ,   6.00000000 ,   59.8178311
0000000975,   6.00000000 ,   0.00000000 ,   8.00000000 ,   6.00000000 ,   6.00000000 ,   59.8178311
0000000976,   7.00000000 ,   0.00000000 ,   8.00000000 ,   6.00000000 ,   6.00000000 ,   59.8178311
0000000977,   8.00000000 ,   0.00000000 ,   8.00000000 ,   6.00000000 ,   6.00000000 ,   59.8178311
0000000978,   9.00000000 ,   0.00000000 ,   8.00000000 ,   6.00000000 ,   6.00000000 ,   59.8178311
0000000979,   10.0000000 ,   0.00000000 ,   8.00000000 ,   6.00000000 ,   6.00000000 ,   59.8178311
0000000980,   0.00000000 ,   1.00000000 ,   8.00000000 ,   5.80869238 ,   5.80869238 ,   59.3350787
0000000981,   1.00000000 ,   1.00000000 ,   8.00000000 ,   5.80869238 ,   5.80869238 ,   59.3350787
0000000982,   2.00000000 ,   1.00000000 ,   8.00000000 ,   5.80869238 ,   5.80869238 ,   59.3350787
0000000983,   3.00000000 ,   1.00000000 ,   8.00000000 ,   5.80869238 ,   5.80869238 ,   59.3350787
0000000984,   4.00000000 ,   1.00000000 ,   8.00000000 ,   5.80869238 ,   5.80869238 ,   59.3350787
0000000985,   5.00000000 ,   1.00000000 ,   8.00000000 ,   5.80869238 ,   5.80869238 ,   59.3350787
0000000986,   6.00000000 ,   1.00000000 ,   8.00000000 ,   5.80869238 ,   5.80869238 ,   59.3350787
0000000987,   7.00000000 ,   1.00000000 ,   8.00000000 ,   5.80869238 ,   5.80869238 ,   59.3350787
0000000988,   8.00000000 ,   1.00000000 ,   8.00000000 ,   5.80869238 ,   5.80869238 ,   59.3350787
0000000989,   9.00000000 ,   1.00000000 ,   8.00000000 ,   5.80869238 ,   5.80869238 ,   59.3350787
0000000990,   10.0000000 ,   1.00000000 ,   8.00000000 ,   5.80869238 ,   5.80869238 ,   59.3350787
0000000991,   0.00000000 ,   2.00000000 ,   8.00000000 ,   5.61563394 ,   5.61563394 ,   58.7212141
0000000992,   1.00000000 ,   2.00000000 ,   8.00000000 ,   5.61563394 ,   5.61563394 ,   58.7212141
0000000993,   2.00000000 ,   2.00000000 ,   8.00000000 ,   5.61563394 ,   5.61563394 ,   58.7212141
0000000994,   3.00000000 ,   2.00000000 ,   8.00000000 ,   5.61563394 ,   5.61563394 ,   58.7212141
0000000995,   4.00000000 ,   2.00000000 ,   8.00000000 ,   5.61563394 ,   5.61563394 ,   58.7212141
0000000996,   5.00000000 ,   2.00000000 ,   8.00000000 ,   5.61563394 ,   5.61563394 ,   58.7212141
0000000997,   6.00000000 ,   2.00000000 ,   8.00000000 ,   5.61563394 ,   5.61563394 ,   58.7212141
0000000998,   7.00000000 ,   2.00000000 ,   8.00000000 ,   5.61563394 ,   5.61563394 ,   58.7212141
0000000999,   8.00000000 ,   2.00000000 ,   8.00000000 ,   5.61563394 ,   5.61563394 ,   58.7212141
0000001000,   9.00000000 ,   2.00000000 ,   8.00000000 ,   5.61563394 ,   5.61563394 ,   58.7212141
0000001001,   10.0000000 ,   2.00000000 ,   8.00000000 ,   5.61563394 ,   5.61563394 ,   58.7212141
0000001002,   0.00000000 ,   3.00000000 ,   8.00000000 ,   5.42039595 ,   5.42039595 ,   58.0561795
0000001003,   1.00000000 ,   3.00000000 ,   8.00000000 ,   5.42039595 ,   5.42039595 ,   58.0561794
0000001004,   2.00000000 ,   3.00000000 ,   8.00000000 ,   5.42039595 ,   5.42039595 ,   58.0561794
0000001005,   3.00000000 ,   3.00000000 ,   8.00000000 ,   5.42039596 ,   5.42039596 ,   58.0561794
0000001006,   4.00000000 ,   3.00000000 ,   8.00000000 ,   5.42039596 ,   5.42039596 ,   58.0561794
0000001007,   5.00000000 ,   3.00000000 ,   8.00000000 ,   5.42039596 ,   5.42039596 ,   58.0561794
0000001008,   6.00000000 ,   3.00000000 ,   8.00000000 ,   5.42039596 ,   5.42039596 ,   58.0561794
0000001009,   7.00000000 ,   3.00000000 ,   8.00000000 ,   5.42039596 ,   5.42039596 ,   58.0561794
0000001010,   8.00000000 ,   3.00000000 ,   8.00000000 ,   5.42039595 ,   5.42039595 ,   58.0561794
0000001011,   9.00000000 ,   3.00000000 ,   8.00000000 ,   5.42039595 ,   5.42039595 ,   58.0561794
0000001012,   10.0000000 ,   3.00000000 ,   8.00000000 ,   5.42039595 ,   5.42039595 ,   58.0561795
0000001013,   0.00000000 ,   4.00000000 ,   8.00000000 ,   5.22289910 ,   5.22289910 ,   57.3942993
0000001014,   1.00000000 ,   4.00000000 ,   8.00000000 ,   5.22289911 ,   5.22289911 ,   57.3942993
0000001015,   2.00000000 ,   4.00000000 ,   8.00000000 ,   5.22289911 ,   5.22289911 ,   57.3942992
0000001016,   3.00000000 ,   4.00000000 ,   8.00000000 ,   5.22289911 ,   5.22289911 ,   57.3942991
0000001017,   4.00000000 ,   4.00000000 ,   8.00000000 ,   5.22289912 ,   5.22289912 ,   57.3942991
0000001018,   5.00000000 ,   4.00000000 ,   8.00000000 ,   5.22289912 ,   5.22289912 ,   57.3942991
0000001019,   6.00000000 ,   4.00000000 ,   8.00000000 ,   5.22289912 ,   5.22289912 ,   57.3942991
0000001020,   7.00000000 ,   4.00000000 ,   8.00000000 ,   5.22289911 ,   5.22289911 ,   57.3942991
0000001021,   8.00000000 ,   4.00000000 ,   8.00000000 ,   5.22289911 ,   5.22289911 ,   57.3942992
0000001022,   9.00000000 ,   4.00000000 ,   8.00000000 ,   5.22289911 ,   5.22289911 ,   57.3942993
0000001023,   10.0000000 ,   4.00000000 ,   8.00000000 ,   5.22289910 ,   5.22289910 ,   57.3942993
0000001024,   0.00000000 ,   5.00000000 ,   8.00000000 ,   5.02324444 ,   5.02324444 ,   56.7702043
0000001025,   1.00000000 ,   5.00000000 ,   8.00000000 ,   5.02324444 ,   5.02324444 ,   56.7702042
0000001026,   2.00000000 ,   5.00000000 ,   8.00000000 ,   5.02324445 ,   5.02324445 ,   56.7702040
0000001027,   3.00000000 ,   5.00000000 ,   8.00000000 ,   5.02324445 ,   5.02324445 ,   56.7702039
0000001028,   4.00000000 ,   5.00000000 ,   8.00000000 ,   5.02324446 ,   5.02324446 ,   56.7702038
0000001029,   5.00000000 ,   5.00000000 ,   8.00000000 ,   5.02324446 ,   5.02324446 ,   56.7702037
0000001030,   6.00000000 ,   5.00000000 ,   8.00000000 ,   5.02324446 ,   5.02324446 ,   56.7702038
0000001031,   7.00000000 ,   5.00000000 ,   8.00000000 ,   5.02324445 ,   5.02324445 ,   56.7702039
0000001032,   8.00000000 ,   5.00000000 ,   8.00000000 ,   5.02324445 ,   5.02324445 ,   56.7702040
0000001033,   9.00000000 ,   5.00000000 ,   8.00000000 ,   5.02324444 ,   5.02324444 ,   56.7702042
0000001034,   10.0000000 ,   5.00000000 ,   8.00000000 ,   5.02324444 ,   5.02324444 ,   56.7702043
0000001035,   0.00000000 ,   6.00000000 ,   8.00000000 ,   4.82162113 ,   4.82162113 ,   56.2037938
0000001036,   1.00000000 ,   6.00000000 ,   8.00000000 ,   4.82162114 ,   4.82162114 ,   56.2037935
0000001037,   2.00000000 ,   6.00000000 ,   8.00000000 ,   4.82162114 ,   4.82162114 ,   56.2037928
0000001038,   3.00000000 ,   6.00000000 ,   8.00000000 ,   4.82162115 ,   4.82162115 ,   56.2037923
0000001039,   4.00000000 ,   6.00000000 ,   8.00000000 ,   4.82162116 ,   4.82162116 ,   56.2037920
0000001040,   5.00000000 ,   6.00000000 ,   8.00000000 ,   4.82162116 ,   4.82162116 ,   56.2037919
0000001041,   6.00000000 ,   6.00000000 ,   8.00000000 ,   4.82162116 ,   4.82162116 ,   56.2037920
0000001042,   7.00000000 ,   6.00000000 ,   8.00000000 ,   4.82162115 ,   4.82162115 ,   56.2037923
0000001043,   8.00000000 ,   6.00000000 ,   8.00000000 ,   4.82162114 ,   4.82162114 ,   56.2037928
0000001044,   9.00000000 ,   6.00000000 ,   8.00000000 ,   4.82162114 ,   4.82162114 ,   56.2037935
0000001045,   10.0000000 ,   6.00000000 ,   8.00000000 ,   4.82162113 ,   4.82162113 ,   56.2037938
0000001046,   0.00000000 ,   7.00000000 ,   8.00000000 ,   4.61825378 ,   4.61825378 ,   55.7042510
0000001047,   1.00000000 ,   7.00000000 ,   8.00000000 ,   4.61825378 ,   4.61825378 ,   55.7042501
0000001048,   2.00000000 ,   7.00000000 ,   8.00000000 ,   4.61825380 ,   4.61825380 ,   55.7042482
0000001049,   3.00000000 ,   7.00000000 ,   8.00000000 ,   4.61825381 ,   4.61825381 ,   55.7042467
0000001050,   4.00000000 ,   7.00000000 ,   8.00000000 ,   4.61825382 ,   4.61825382 ,   55.7042459
0000001051,   5.00000000 ,   7.00000000 ,   8.00000000 ,   4.61825383 ,   4.61825383 ,   55.7042456
0000001052,   6.00000000 ,   7.00000000 ,   8.00000000 ,   4.61825382 ,   4.61825382 ,   55.7042459
0000001053,   7.00000000 ,   7.00000000 ,   8.00000000 ,   4.61825381 ,   4.61825381 ,   55.7042467
0000001054,   8.00000000 ,   7.00000000 ,   8.00000000 ,   4.61825380 ,   4.61825380 ,   55.7042482
0000001055,   9.00000000 ,   7.00000000 ,   8.00000000 ,   4.61825378 ,   4.61825378 ,   55.7042501
0000001056,   10.0000000 ,   7.00000000 ,   8.00000000 ,   4.61825378 ,   4.61825378 ,   55.7042510
0000001057,   0.00000000 ,   8.00000000 ,   8.00000000 ,   4.41337225 ,   4.41337225 ,   55.2742114
0000001058,   1.00000000 ,   8.00000000 ,   8.00000000 ,   4.41337226 ,   4.41337226 ,   55.2742087
0000001059,   2.00000000 ,   8.00000000 ,   8.00000000 ,   4.41337228 ,   4.41337228 ,   55.2742040
0000001060,   3.00000000 ,   8.00000000 ,   8.00000000 ,   4.41337230 ,   4.41337230 ,   55.2742003
0000001061,   4.00000000 ,   8.00000000 ,   8.00000000 ,   4.41337231 ,   4.41337231 ,   55.2741983
0000001062,   5.00000000 ,   8.00000000 ,   8.00000000 ,   4.41337231 ,   4.41337231 ,   55.2741977
0000001063,   6.00000000 ,   8.00000000 ,   8.00000000 ,   4.41337231 ,   4.41337231 ,   55.2741983
0000001064,   7.00000000 ,   8.00000000 ,   8.00000000 ,   4.41337230 ,   4.41337230 ,   55.2742003
0000001065,   8.00000000 ,   8.00000000 ,   8.00000000 ,   4.41337228 ,   4.41337228 ,   55.2742040
0000001066,   9.00000000 ,   8.00000000 ,   8.00000000 ,   4.41337226 ,   4.41337226 ,   55.2742087
0000001067,   10.0000000 ,   8.00000000 ,   8.00000000 ,   4.41337225 ,   4.41337225 ,   55.2742114
0000001068,   0.00000000 ,   9.00000000 ,   8.00000000 ,   4.20720048 ,   4.20720048 ,   54.9248173
0000001069,   1.00000000 ,   9.00000000 ,   8.00000000 ,   4.20720049 ,   4.20720049 ,   54.9248112
0000001070,   2.00000000 ,   9.00000000 ,   8.00000000 ,   4.20720050 ,   4.20720050 ,   54.9248012
0000001071,   3.00000000 ,   9.00000000 ,   8.00000000 ,   4.20720052 ,   4.20720052 ,   54.9247937
0000001072,   4.00000000 ,   9.00000000 ,   8.00000000 ,   4.20720053 ,   4.20720053 ,   54.9247898
0000001073,   5.00000000 ,   9.00000000 ,   8.00000000 ,   4.20720053 ,   4.20720053 ,   54.9247886
0000001074,   6.00000000 ,   9.00000000 ,   8.00000000 ,   4.20720053 ,   4.20720053 ,   54.9247898
0000001075,   7.00000000 ,   9.00000000 ,   8.00000000 ,   4.20720052 ,   4.20720052 ,   54.9247937
0000001076,   8.00000000 ,   9.00000000 ,   8.00000000 ,   4.20720050 ,   4.20720050 ,   54.9248012
0000001077,   9.00000000 ,   9.00000000 ,   8.00000000 ,   4.20720049 ,   4.20720049 ,   54.9248112
0000001078,   10.0000000 ,   9.00000000 ,   8.00000000 ,   4.20720048 ,   4.20720048 ,   54.9248173
0000001079,   0.00000000 ,   10.0000000 ,   8.00000000 ,   4.00000000 ,   4.00000000 ,   54.8039602
0000001080,   1.00000000 ,   10.0000000 ,   8.00000000 ,   4.00000000 ,   4.00000000 ,   54.8039515
0000001081,   2.00000000 ,   10.0000000 ,   8.00000000 ,   4.00000000 ,   4.00000000 ,   54.8039380
0000001082,   3.00000000 ,   10.0000000 ,   8.00000000 ,   4.00000000 ,   4.00000000 ,   54.8039281
0000001083,   4.00000000 ,   10.0000000 ,   8.00000000 ,   4.00000000 ,   4.00000000 ,   54.8039230
0000001084,   5.00000000 ,   10.0000000 ,   8.00000000 ,   4.00000000 ,   4.00000000 ,   54.8039215
0000001085,   6.00000000 ,   10.0000000 ,   8.00000000 ,   4.00000000 ,   4.00000000 ,   54.8039230
0000001086,   7.00000000 ,   10.0000000 ,   8.00000000 ,   4.00000000 ,   4.00000000 ,   54.8039281
0000001087,   8.00000000 ,   10.0000000 ,   8.00000000 ,   4.00000000 ,   4.00000000 ,   54.8039380
0000001088,   9.00000000 ,   10.0000000 ,   8.00000000 ,   4.00000000 ,   4.00000000 ,   54.8039515
0000001089,   10.0000000 ,   10.0000000 ,   8.00000000 ,   4.00000000 ,   4.00000000 ,   54.8039602
0000001090,   0.00000000 ,   0.00000000 ,   9.00000000 ,   6.00000000 ,   6.00000000 ,   57.8163795
0000001091,   1.00000000 ,   0.00000000 ,   9.00000000 ,   6.00000000 ,   6.00000000 ,   57.8163795
0000001092,   2.00000000 ,   0.00000000 ,   9.00000000 ,   6.00000000 ,   6.00000000 ,   57.8163795
0000001093,   3.00000000 ,   0.00000000 ,   9.00000000 ,   6.00000000 ,   6.00000000 ,   57.8163795
0000001094,   4.00000000 ,   0.00000000 ,   9.00000000 ,   6.00000000 ,   6.00000000 ,   57.8163795
0000001095,   5.00000000 ,   0.00000000 ,   9.00000000 ,   6.00000000 ,   6.00000000 ,   57.8163795
0000001096,   6.00000000 ,   0.00000000 ,   9.00000000 ,   6.00000000 ,   6.00000000 ,   57.8163795
0000001097,   7.00000000 ,   0.00000000 ,   9.00000000 ,   6.00000000 ,   6.00000000 ,   57.8163795
0000001098,   8.00000000 ,   0.00000000 ,   9.00000000 ,   6.00000000 ,   6.00000000 ,   57.8163795
0000001099,   9.00000000 ,   0.00000000 ,   9.00000000 ,   6.00000000 ,   6.00000000 ,   57.8163795
0000001100,   10.0000000 ,   0.00000000 ,   9.00000000 ,   6.00000000 ,   6.00000000 ,   57.8163795
0000001101,   0.00000000 ,   1.00000000 ,   9.00000000 ,   5.81519144 ,   5.81519144 ,   55.0554078
0000001102,   1.00000000 ,   1.00000000 ,   9.00000000 ,   5.81519144 ,   5.81519144 ,   55.0554078
0000001103,   2.00000000 ,   1.00000000 ,   9.00000000 ,   5.81519144 ,   5.81519144 ,   55.0554078
0000001104,   3.00000000 ,   1.00000000 ,   9.00000000 ,   5.81519144 ,   5.81519144 ,   55.0554078
0000001105,   4.00000000 ,   1.00000000 ,   9.00000000 ,   5.81519144 ,   5.81519144 ,   55.0554078
0000001106,   5.00000000 ,   1.00000000 ,   9.00000000 ,   5.81519144 ,   5.81519144 ,   55.0554078
0000001107,   6.00000000 ,   1.00000000 ,   9.00000000 ,   5.81519144 ,   5.81519144 ,   55.0554078
0000001108,   7.00000000 ,   1.00000000 ,   9.00000000 ,   5.81519144 ,   5.81519144 ,   55.0554078
0000001109,   8.00000000 ,   1.00000000 ,   9.00000000 ,   5.81519144 ,   5.81519144 ,   55.0554078
0000001110,   9.00000000 ,   1.00000000 ,   9.00000000 ,   5.81519144 ,   5.81519144 ,   55.0554078
0000001111,   10.0000000 ,   1.00000000 ,   9.00000000 ,   5.81519144 ,   5.81519144 ,   55.0554078
0000001112,   0.00000000 ,   2.00000000 ,   9.00000000 ,   5.62412725 ,   5.62412725 ,   52.8295940
0000001113,   1.00000000 ,   2.00000000 ,   9.00000000 ,   5.62412725 ,   5.62412725 ,   52.8295940
0000001114,   2.00000000 ,   2.00000000 ,   9.00000000 ,   5.62412725 ,   5.62412725 ,   52.8295940
0000001115,   3.00000000 ,   2.00000000 ,   9.00000000 ,   5.62412725 ,   5.62412725 ,   52.8295940
0000001116,   4.00000000 ,   2.00000000 ,   9.00000000 ,   5.62412725 ,   5.62412725 ,   52.8295940
0000001117,   5.00000000 ,   2.00000000 ,   9.00000000 ,   5.62412725 ,   5.62412725 ,   52.8295940
0000001118,   6.00000000 ,   2.00000000 ,   9.00000000 ,   5.62412725 ,   5.62412725 ,   52.8295940
0000001119,   7.00000000 ,   2.00000000 ,   9.00000000 ,   5.62412725 ,   5.62412725 ,   52.8295940
0000001120,   8.00000000 ,   2.00000000 ,   9.00000000 ,   5.62412725 ,   5.62412725 ,   52.8295940
0000001121,   9.00000000 ,   2.00000000 ,   9.00000000 ,   5.62412725 ,   5.62412725 ,   52.8295940
0000001122,   10.0000000 ,   2.00000000 ,   9.00000000 ,   5.62412725 ,   5.62412725 ,   52.8295940
0000001123,   0.00000000 ,   3.00000000 ,   9.00000000 ,   5.42858960 ,   5.42858960 ,   51.0323512
0000001124,   1.00000000 ,   3.00000000 ,   9.00000000 ,   5.42858960 ,   5.42858960 ,   51.0323512
0000001125,   2.00000000 ,   3.00000000 ,   9.00000000 ,   5.42858960 ,   5.42858960 ,   51.0323512
0000001126,   3.00000000 ,   3.00000000 ,   9.00000000 ,   5.42858960 ,   5.42858960 ,   51.0323512
0000001127,   4.00000000 ,   3.00000000 ,   9.00000000 ,   5.42858960 ,   5.42858960 ,   51.0323512
0000001128,   5.00000000 ,   3.00000000 ,   9.00000000 ,   5.42858960 ,   5.42858960 ,   51.0323512
0000001129,   6.00000000 ,   3.00000000 ,   9.00000000 ,   5.42858960 ,   5.42858960 ,   51.0323512
0000001130,   7.00000000 ,   3.00000000 ,   9.00000000 ,   5.42858960 ,   5.42858960 ,   51.0323512
0000001131,   8.00000000 ,   3.00000000 ,   9.00000000 ,   5.42858960 ,   5.42858960 ,   51.0323512
0000001132,   9.00000000 ,   3.00000000 ,   9.00000000 ,   5.42858960 ,   5.42858960 ,   51.0323512
0000001133,   10.0000000 ,   3.00000000 ,   9.00000000 ,   5.42858960 ,   5.42858960 ,   51.0323512
0000001134,   0.00000000 ,   4.00000000 ,   9.00000000 ,   5.22974037 ,   5.22974037 ,   49.5870633
0000001135,   1.00000000 ,   4.00000000 ,   9.00000000 ,   5.22974037 ,   5.22974037 ,   49.5870633
0000001136,   2.00000000 ,   4.00000000 ,   9.00000000 ,   5.22974037 ,   5.22974037 ,   49.5870633
0000001137,   3.00000000 ,   4.00000000 ,   9.00000000 ,   5.22974038 ,   5.22974038 ,   49.5870633
0000001138,   4.00000000 ,   4.00000000 ,   9.00000000 ,   5.22974038 ,   5.22974038 ,   49.5870632
0000001139,   5.00000000 ,   4.00000000 ,   9.00000000 ,   5.22974038 ,   5.22974038 ,   49.5870632
0000001140,   6.00000000 ,   4.00000000 ,   9.00000000 ,   5.22974038 ,   5.22974038 ,   49.5870632
0000001141,   7.00000000 ,   4.00000000 ,   9.00000000 ,   5.22974038 ,   5.22974038 ,   49.5870633
0000001142,   8.00000000 ,   4.00000000 ,   9.00000000 ,   5.22974037 ,   5.22974037 ,   49.5870633
0000001143,   9.00000000 ,   4.00000000 ,   9.00000000 ,   5.22974037 ,   5.22974037 ,   49.5870633
0000001144,   10.0000000 ,   4.00000000 ,   9.00000000 ,   5.22974037 ,   5.22974037 ,   49.5870633
0000001145,   0.00000000 ,   5.00000000 ,   9.00000000 ,   5.02838967 ,   5.02838967 ,   48.4331601
0000001146,   1.00000000 ,   5.00000000 ,   9.00000000 ,   5.02838967 ,   5.02838967 ,   48.4331601
0000001147,   2.00000000 ,   5.00000000 ,   9.00000000 ,   5.02838967 ,   5.02838967 ,   48.4331601
0000001148,   3.00000000 ,   5.00000000 ,   9.00000000 ,   5.02838967 ,   5.02838967 ,   48.4331601
0000001149,   4.00000000 ,   5.00000000 ,   9.00000000 ,   5.02838967 ,   5.02838967 ,   48.4331601
0000001150,   5.00000000 ,   5.00000000 ,   9.00000000 ,   5.02838968 ,   5.02838968 ,   48.4331600
0000001151,   6.00000000 ,   5.00000000 ,   9.00000000 ,   5.02838967 ,   5.02838967 ,   48.4331601
0000001152,   7.00000000 ,   5.00000000 ,   9.00000000 ,   5.02838967 ,   5.02838967 ,   48.4331601
0000001153,   8.00000000 ,   5.00000000 ,   9.00000000 ,   5.02838967 ,   5.02838967 ,   48.4331601
0000001154,   9.00000000 ,   5.00000000 ,   9.00000000 ,   5.02838967 ,   5.02838967 ,   48.4331601
0000001155,   10.0000000 ,   5.00000000 ,   9.00000000 ,   5.02838967 ,   5.02838967 ,   48.4331601
0000001156,   0.00000000 ,   6.00000000 ,   9.00000000 ,   4.82513161 ,   4.82513161 ,   47.5196497
0000001157,   1.00000000 ,   6.00000000 ,   9.00000000 ,   4.82513161 ,   4.82513161 ,   47.5196496
0000001158,   2.00000000 ,   6.00000000 ,   9.00000000 ,   4.82513161 ,   4.82513161 ,   47.5196495
0000001159,   3.00000000 ,   6.00000000 ,   9.00000000 ,   4.82513161 ,   4.82513161 ,   47.5196495
0000001160,   4.00000000 ,   6.00000000 ,   9.00000000 ,   4.82513161 ,   4.82513161 ,   47.5196494
0000001161,   5.00000000 ,   6.00000000 ,   9.00000000 ,   4.82513162 ,   4.82513162 ,   47.5196494
0000001162,   6.00000000 ,   6.00000000 ,   9.00000000 ,   4.82513161 ,   4.82513161 ,   47.5196494
0000001163,   7.00000000 ,   6.00000000 ,   9.00000000 ,   4.82513161 ,   4.82513161 ,   47.5196495
0000001164,   8.00000000 ,   6.00000000 ,   9.00000000 ,   4.82513161 ,   4.82513161 ,   47.5196495
0000001165,   9.00000000 ,   6.00000000 ,   9.00000000 ,   4.82513161 ,   4.82513161 ,   47.5196496
0000001166,   10.0000000 ,   6.00000000 ,   9.00000000 ,   4.82513161 ,   4.82513161 ,   47.5196497
0000001167,   0.00000000 ,   7.00000000 ,   9.00000000 ,   4.62040878 ,   4.62040878 ,   46.8020123
0000001168,   1.00000000 ,   7.00000000 ,   9.00000000 ,   4.62040878 ,   4.62040878 ,   46.8020122
0000001169,   2.00000000 ,   7.00000000 ,   9.00000000 ,   4.62040878 ,   4.62040878 ,   46.8020120
0000001170,   3.00000000 ,   7.00000000 ,   9.00000000 ,   4.62040879 ,   4.62040879 ,   46.8020118
0000001171,   4.00000000 ,   7.00000000 ,   9.00000000 ,   4.62040879 ,   4.62040879 ,   46.8020117
0000001172,   5.00000000 ,   7.00000000 ,   9.00000000 ,   4.62040879 ,   4.62040879 ,   46.8020116
0000001173,   6.00000000 ,   7.00000000 ,   9.00000000 ,   4.62040879 ,   4.62040879 ,   46.8020117
0000001174,   7.00000000 ,   7.00000000 ,   9.00000000 ,   4.62040879 ,   4.62040879 ,   46.8020118
0000001175,   8.00000000 ,   7.00000000 ,   9.00000000 ,   4.62040878 ,   4.62040878 ,   46.8020120
0000001176,   9.00000000 ,   7.00000000 ,   9.00000000 ,   4.62040878 ,   4.62040878 ,   46.8020122
0000001177,   10.0000000 ,   7.00000000 ,   9.00000000 ,   4.62040878 ,   4.62040878 ,   46.8020123
0000001178,   0.00000000 ,   8.00000000 ,   9.00000000 ,   4.41453382 ,   4.41453382 ,   46.2393015
0000001179,   1.00000000 ,   8.00000000 ,   9.00000000 ,   4.41453382 ,   4.41453382 ,   46.2393012
0000001180,   2.00000000 ,   8.00000000 ,   9.00000000 ,   4.41453382 ,   4.41453382 ,   46.2393006
0000001181,   3.00000000 ,   8.00000000 ,   9.00000000 ,   4.41453383 ,   4.41453383 ,   46.2393001
0000001182,   4.00000000 ,   8.00000000 ,   9.00000000 ,   4.41453383 ,   4.41453383 ,   46.2392998
0000001183,   5.00000000 ,   8.00000000 ,   9.00000000 ,   4.41453383 ,   4.41453383 ,   46.2392997
0000001184,   6.00000000 ,   8.00000000 ,   9.00000000 ,   4.41453383 ,   4.41453383 ,   46.2392998
0000001185,   7.00000000 ,   8.00000000 ,   9.00000000 ,   4.41453383 ,   4.41453383 ,   46.2393001
0000001186,   8.00000000 ,   8.00000000 ,   9.00000000 ,   4.41453382 ,   4.41453382 ,   46.2393006
0000001187,   9.00000000 ,   8.00000000 ,   9.00000000 ,   4.41453382 ,   4.41453382 ,   46.2393012
0000001188,   10.0000000 ,   8.00000000 ,   9.00000000 ,   4.41453382 ,   4.41453382 ,   46.2393015
0000001189,   0.00000000 ,   9.00000000 ,   9.00000000 ,   4.20769311 ,   4.20769311 ,   45.8080049
0000001190,   1.00000000 ,   9.00000000 ,   9.00000000 ,   4.20769311 ,   4.20769311 ,   45.8080042
0000001191,   2.00000000 ,   9.00000000 ,   9.00000000 ,   4.20769311 ,   4.20769311 ,   45.8080030
0000001192,   3.00000000 ,   9.00000000 ,   9.00000000 ,   4.20769311 ,   4.20769311 ,   45.8080020
0000001193,   4.00000000 ,   9.00000000 ,   9.00000000 ,   4.20769312 ,   4.20769312 ,   45.8080014
0000001194,   5.00000000 ,   9.00000000 ,   9.00000000 ,   4.20769312 ,   4.20769312 ,   45.8080013
0000001195,   6.00000000 ,   9.00000000 ,   9.00000000 ,   4.20769312 ,   4.20769312 ,   45.8080014
0000001196,   7.00000000 ,   9.00000000 ,   9.00000000 ,   4.20769311 ,   4.20769311 ,   45.8080020
0000001197,   8.00000000 ,   9.00000000 ,   9.00000000 ,   4.20769311 ,   4.20769311 ,   45.8080030
0000001198,   9.00000000 ,   9.00000000 ,   9.00000000 ,   4.20769311 ,   4.20769311 ,   45.8080042
0000001199,   10.0000000 ,   9.00000000 ,   9.00000000 ,   4.20769311 ,   4.20769311 ,   45.8080049
0000001200,   0.00000000 ,   10.0000000 ,   9.00000000 ,   4.00000000 ,   4.00000000 ,   45.6546606
0000001201,   1.00000000 ,   10.0000000 ,   9.00000000 ,   4.00000000 ,   4.00000000 ,   45.6546597
0000001202,   2.00000000 ,   10.0000000 ,   9.00000000 ,   4.00000000 ,   4.00000000 ,   45.6546580
0000001203,   3.00000000 ,   10.0000000 ,   9.00000000 ,   4.00000000 ,   4.00000000 ,   45.6546567
0000001204,   4.00000000 ,   10.0000000 ,   9.00000000 ,   4.00000000 ,   4.00000000 ,   45.6546560
0000001205,   5.00000000 ,   10.0000000 ,   9.00000000 ,   4.00000000 ,   4.00000000 ,   45.6546558
0000001206,   6.00000000 ,   10.0000000 ,   9.00000000 ,   4.00000000 ,   4.00000000 ,   45.6546560
0000001207,   7.00000000 ,   10.0000000 ,   9.00000000 ,   4.00000000 ,   4.00000000 ,   45.6546567
0000001208,   8.00000000 ,   10.0000000 ,   9.00000000 ,   4.00000000 ,   4.00000000 ,   45.6546580
0000001209,   9.00000000 ,   10.0000000 ,   9.00000000 ,   4.00000000 ,   4.00000000 ,   45.6546597
0000001210,   10.0000000 ,   10.0000000 ,   9.00000000 ,   4.00000000 ,   4.00000000 ,   45.6546606
0000001211,   0.00000000 ,   0.00000000 ,   10.0000000 ,   6.00000000 ,   6.00000000 ,   30.0000000
0000001212,   1.00000000 ,   0.00000000 ,   10.0000000 ,   6.00000000 ,   6.00000000 ,   30.0000000
0000001213,   2.00000000 ,   0.00000000 ,   10.0000000 ,   6.00000000 ,   6.00000000 ,   30.0000000
0000001214,   3.00000000 ,   0.00000000 ,   10.0000000 ,   6.00000000 ,   6.00000000 ,   30.0000000
0000001215,   4.00000000 ,   0.00000000 ,   10.0000000 ,   6.00000000 ,   6.00000000 ,   30.0000000
0000001216,   5.00000000 ,   0.00000000 ,   10.0000000 ,   6.00000000 ,   6.00000000 ,   30.0000000
0000001217,   6.00000000 ,   0.00000000 ,   10.0000000 ,   6.00000000 ,   6.00000000 ,   30.0000000
0000001218,   7.00000000 ,   0.00000000 ,   10.0000000 ,   6.00000000 ,   6.00000000 ,   30.0000000
0000001219,   8.00000000 ,   0.00000000 ,   10.0000000 ,   6.00000000 ,   6.00000000 ,   30.0000000
0000001220,   9.00000000 ,   0.00000000 ,   10.0000000 ,   6.00000000 ,   6.00000000 ,   30.0000000
0000001221,   10.0000000 ,   0.00000000 ,   10.0000000 ,   6.00000000 ,   6.00000000 ,   30.0000000
0000001222,   0.00000000 ,   1.00000000 ,   10.0000000 ,   5.80486527 ,   5.80486527 ,   30.0000000
0000001223,   1.00000000 ,   1.00000000 ,   10.0000000 ,   5.80486527 ,   5.80486527 ,   30.0000000
0000001224,   2.00000000 ,   1.00000000 ,   10.0000000 ,   5.80486527 ,   5.80486527 ,   30.0000000
0000001225,   3.00000000 ,   1.00000000 ,   10.0000000 ,   5.80486527 ,   5.80486527 ,   30.0000000
0000001226,   4.00000000 ,   1.00000000 ,   10.0000000 ,   5.80486527 ,   5.80486527 ,   30.0000000
0000001227,   5.00000000 ,   1.00000000 ,   10.0000000 ,   5.80486527 ,   5.80486527 ,   30.0000000
0000001228,   6.00000000 ,   1.00000000 ,   10.0000000 ,   5.80486527 ,   5.80486527 ,   30.0000000
0000001229,   7.00000000 ,   1.00000000 ,   10.0000000 ,   5.80486527 ,   5.80486527 ,   30.0000000
0000001230,   8.00000000 ,   1.00000000 ,   10.0000000 ,   5.80486527 ,   5.80486527 ,   30.0000000
0000001231,   9.00000000 ,   1.00000000 ,   10.0000000 ,   5.80486527 ,   5.80486527 ,   30.0000000
0000001232,   10.0000000 ,   1.00000000 ,   10.0000000 ,   5.80486527 ,   5.80486527 ,   30.0000000
0000001233,   0.00000000 ,   2.00000000 ,   10.0000000 ,   5.60952541 ,   5.60952541 ,   30.0000000
0000001234,   1.00000000 ,   2.00000000 ,   10.0000000 ,   5.60952541 ,   5.60952541 ,   30.0000000
0000001235,   2.00000000 ,   2.00000000 ,   10.0000000 ,   5.60952541 ,   5.60952541 ,   30.0000000
0000001236,   3.00000000 ,   2.00000000 ,   10.0000000 ,   5.60952541 ,   5.60952541 ,   30.0000000
0000001237,   4.00000000 ,   2.00000000 ,   10.0000000 ,   5.60952541 ,   5.60952541 ,   30.0000000
0000001238,   5.00000000 ,   2.00000000 ,   10.0000000 ,   5.60952541 ,   5.60952541 ,   30.0000000
0000001239,   6.00000000 ,   2.00000000 ,   10.0000000 ,   5.60952541 ,   5.60952541 ,   30.0000000
0000001240,   7.00000000 ,   2.00000000 ,   10.0000000 ,   5.60952541 ,   5.60952541 ,   30.0000000
0000001241,   8.00000000 ,   2.00000000 ,   10.0000000 ,   5.60952541 ,   5.60952541 ,   30.0000000
0000001242,   9.00000000 ,   2.00000000 ,   10.0000000 ,   5.60952541 ,   5.60952541 ,   30.0000000
0000001243,   10.0000000 ,   2.00000000 ,   10.0000000 ,   5.60952541 ,   5.60952541 ,   30.0000000
0000001244,   0.00000000 ,   3.00000000 ,   10.0000000 ,   5.41269285 ,   5.41269285 ,   30.0000000
0000001245,   1.00000000 ,   3.00000000 ,   10.0000000 ,   5.41269285 ,   5.41269285 ,   30.0000000
0000001246,   2.00000000 ,   3.00000000 ,   10.0000000 ,   5.41269285 ,   5.41269285 ,   30.0000000
0000001247,   3.00000000 ,   3.00000000 ,   10.0000000 ,   5.41269285 ,   5.41269285 ,   30.0000000
0000001248,   4.00000000 ,   3.00000000 ,   10.0000000 ,   5.41269285 ,   5.41269285 ,   30.0000000
0000001249,   5.00000000 ,   3.00000000 ,   10.0000000 ,   5.41269285 ,   5.41269285 ,   30.0000000
0000001250,   6.00000000 ,   3.00000000 ,   10.0000000 ,   5.41269285 ,   5.41269285 ,   30.0000000
0000001251,   7.00000000 ,   3.00000000 ,   10.0000000 ,   5.41269285 ,   5.41269285 ,   30.0000000
0000001252,   8.00000000 ,   3.00000000 ,   10.0000000 ,   5.41269285 ,   5.41269285 ,   30.0000000
0000001253,   9.00000000 ,   3.00000000 ,   10.0000000 ,   5.41269285 ,   5.41269285 ,   30.0000000
0000001254,   10.0000000 ,   3.00000000 ,   10.0000000 ,   5.41269285 ,   5.41269285 ,   30.0000000
0000001255,   0.00000000 ,   4.00000000 ,   10.0000000 ,   5.21402857 ,   5.21402857 ,   30.0000000
0000001256,   1.00000000 ,   4.00000000 ,   10.0000000 ,   5.21402857 ,   5.21402857 ,   30.0000000
0000001257,   2.00000000 ,   4.00000000 ,   10.0000000 ,   5.21402857 ,   5.21402857 ,   30.0000000
0000001258,   3.00000000 ,   4.00000000 ,   10.0000000 ,   5.21402857 ,   5.21402857 ,   30.0000000
0000001259,   4.00000000 ,   4.00000000 ,   10.0000000 ,   5.21402857 ,   5.21402857 ,   30.0000000
0000001260,   5.00000000 ,   4.00000000 ,   10.0000000 ,   5.21402857 ,   5.21402857 ,   30.0000000
0000001261,   6.00000000 ,   4.00000000 ,   10.0000000 ,   5.21402857 ,   5.21402857 ,   30.0000000
0000001262,   7.00000000 ,   4.00000000 ,   10.0000000 ,   5.21402857 ,   5.21402857 ,   30.0000000
0000001263,   8.00000000 ,   4.00000000 ,   10.0000000 ,   5.21402857 ,   5.21402857 ,   30.0000000
0000001264,   9.00000000 ,   4.00000000 ,   10.0000000 ,   5.21402857 ,   5.21402857 ,   30.0000000
0000001265,   10.0000000 ,   4.00000000 ,   10.0000000 ,   5.21402857 ,   5.21402857 ,   30.0000000
0000001266,   0.00000000 ,   5.00000000 ,   10.0000000 ,   5.01362784 ,   5.01362784 ,   30.0000000
0000001267,   1.00000000 ,   5.00000000 ,   10.0000000 ,   5.01362784 ,   5.01362784 ,   30.0000000
0000001268,   2.00000000 ,   5.00000000 ,   10.0000000 ,   5.01362784 ,   5.01362784 ,   30.0000000
0000001269,   3.00000000 ,   5.00000000 ,   10.0000000 ,   5.01362784 ,   5.01362784 ,   30.0000000
0000001270,   4.00000000 ,   5.00000000 ,   10.0000000 ,   5.01362784 ,   5.01362784 ,   30.0000000
0000001271,   5.00000000 ,   5.00000000 ,   10.0000000 ,   5.01362784 ,   5.01362784 ,   30.0000000
0000001272,   6.00000000 ,   5.00000000 ,   10.0000000 ,   5.01362784 ,   5.01362784 ,   30.0000000
0000001273,   7.00000000 ,   5.00000000 ,   10.0000000 ,   5.01362784 ,   5.01362784 ,   30.0000000
0000001274,   8.00000000 ,   5.00000000 ,   10.0000000 ,   5.01362784 ,   5.01362784 ,   30.0000000
0000001275,   9.00000000 ,   5.00000000 ,   10.0000000 ,   5.01362784 ,   5.01362784 ,   30.0000000
0000001276,   10.0000000 ,   5.00000000 ,   10.0000000 ,   5.01362784 ,   5.01362784 ,   30.0000000
0000001277,   0.00000000 ,   6.00000000 ,   10.0000000 ,   4.81179080 ,   4.81179080 ,   30.0000000
0000001278,   1.00000000 ,   6.00000000 ,   10.0000000 ,   4.81179080 ,   4.81179080 ,   30.0000000
0000001279,   2.00000000 ,   6.00000000 ,   10.0000000 ,   4.81179080 ,   4.81179080 ,   30.0000000
0000001280,   3.00000000 ,   6.00000000 ,   10.0000000 ,   4.81179080 ,   4.81179080 ,   30.0000000
0000001281,   4.00000000 ,   6.00000000 ,   10.0000000 ,   4.81179080 ,   4.81179080 ,   30.0000000
0000001282,   5.00000000 ,   6.00000000 ,   10.0000000 ,   4.81179080 ,   4.81179080 ,   30.0000000
0000001283,   6.00000000 ,   6.00000000 ,   10.0000000 ,   4.81179080 ,   4.81179080 ,   30.0000000
0000001284,   7.00000000 ,   6.00000000 ,   10.0000000 ,   4.81179080 ,   4.81179080 ,   30.0000000
0000001285,   8.00000000 ,   6.00000000 ,   10.0000000 ,   4.81179080 ,   4.81179080 ,   30.0000000
0000001286,   9.00000000 ,   6.00000000 ,   10.0000000 ,   4.81179080 ,   4.81179080 ,   30.0000000
0000001287,   10.0000000 ,   6.00000000 ,   10.0000000 ,   4.81179080 ,   4.81179080 ,   30.0000000
0000001288,   0.00000000 ,   7.00000000 ,   10.0000000 ,   4.60893335 ,   4.60893335 ,   30.0000000
0000001289,   1.00000000 ,   7.00000000 ,   10.0000000 ,   4.60893335 ,   4.60893335 ,   30.0000000
0000001290,   2.00000000 ,   7.00000000 ,   10.0000000 ,   4.60893335 ,   4.60893335 ,   30.0000000
0000001291,   3.00000000 ,   7.00000000 ,   10.0000000 ,   4.60893335 ,   4.60893335 ,   30.0000000
0000001292,   4.00000000 ,   7.00000000 ,   10.0000000 ,   4.60893335 ,   4.60893335 ,   30.0000000
0000001293,   5.00000000 ,   7.00000000 ,   10.0000000 ,   4.60893335 ,   4.60893335 ,   30.0000000
0000001294,   6.00000000 ,   7.00000000 ,   10.0000000 ,   4.60893335 ,   4.60893335 ,   30.0000000
0000001295,   7.00000000 ,   7.00000000 ,   10.0000000 ,   4.60893335 ,   4.60893335 ,   30.0000000
0000001296,   8.00000000 ,   7.00000000 ,   10.0000000 ,   4.60893335 ,   4.60893335 ,   30.0000000
0000001297,   9.00000000 ,   7.00000000 ,   10.0000000 ,   4.60893335 ,   4.60893335 ,   30.0000000
0000001298,   10.0000000 ,   7.00000000 ,   10.0000000 ,   4.60893335 ,   4.60893335 ,   30.0000000
0000001299,   0.00000000 ,   8.00000000 ,   10.0000000 ,   4.40557914 ,   4.40557914 ,   30.0000000
0000001300,   1.00000000 ,   8.00000000 ,   10.0000000 ,   4.40557914 ,   4.40557914 ,   30.0000000
0000001301,   2.00000000 ,   8.00000000 ,   10.0000000 ,   4.40557914 ,   4.40557914 ,   30.0000000
0000001302,   3.00000000 ,   8.00000000 ,   10.0000000 ,   4.40557914 ,   4.40557914 ,   30.0000000
0000001303,   4.00000000 ,   8.00000000 ,   10.0000000 ,   4.40557914 ,   4.40557914 ,   30.0000000
0000001304,   5.00000000 ,   8.00000000 ,   10.0000000 ,   4.40557914 ,   4.40557914 ,   30.0000000
0000001305,   6.00000000 ,   8.00000000 ,   10.0000000 ,   4.40557914 ,   4.40557914 ,   30.0000000
0000001306,   7.00000000 ,   8.00000000 ,   10.0000000 ,   4.40557914 ,   4.40557914 ,   30.0000000
0000001307,   8.00000000 ,   8.00000000 ,   10.0000000 ,   4.40557914 ,   4.40557914 ,   30.0000000
0000001308,   9.00000000 ,   8.00000000 ,   10.0000000 ,   4.40557914 ,   4.40557914 ,   30.0000000
0000001309,   10.0000000 ,   8.00000000 ,   10.0000000 ,   4.40557914 ,   4.40557914 ,   30.0000000
0000001310,   0.00000000 ,   9.00000000 ,   10.0000000 ,   4.20235996 ,   4.20235996 ,   30.0000000
0000001311,   1.00000000 ,   9.00000000 ,   10.0000000 ,   4.20235996 ,   4.20235996 ,   30.0000000
0000001312,   2.00000000 ,   9.00000000 ,   10.0000000 ,   4.20235996 ,   4.20235996 ,   30.0000000
0000001313,   3.00000000 ,   9.00000000 ,   10.0000000 ,   4.20235996 ,   4.20235996 ,   30.0000000
0000001314,   4.00000000 ,   9.00000000 ,   10.0000000 ,   4.20235996 ,   4.20235996 ,   30.0000000
0000001315,   5.00000000 ,   9.00000000 ,   10.0000000 ,   4.20235996 ,   4.20235996 ,   30.0000000
0000001316,   6.00000000 ,   9.00000000 ,   10.0000000 ,   4.20235996 ,   4.20235996 ,   30.0000000
0000001317,   7.00000000 ,   9.00000000 ,   10.0000000 ,   4.20235996 ,   4.20235996 ,   30.0000000
0000001318,   8.00000000 ,   9.00000000 ,   10.0000000 ,   4.20235996 ,   4.20235996 ,   30.0000000
0000001319,   9.00000000 ,   9.00000000 ,   10.0000000 ,   4.20235996 ,   4.20235996 ,   30.0000000
0000001320,   10.0000000 ,   9.00000000 ,   10.0000000 ,   4.20235996 ,   4.20235996 ,   30.0000000
0000001321,   0.00000000 ,   10.0000000 ,   10.0000000 ,   4.00000000 ,   4.00000000 ,   30.0000000
0000001322,   1.00000000 ,   10.0000000 ,   10.0000000 ,   4.00000000 ,   4.00000000 ,   30.0000000
0000001323,   2.00000000 ,   10.0000000 ,   10.0000000 ,   4.00000000 ,   4.00000000 ,   30.0000000
0000001324,   3.00000000 ,   10.0000000 ,   10.0000000 ,   4.00000000 ,   4.00000000 ,   30.0000000
0000001325,   4.00000000 ,   10.0000000 ,   10.0000000 ,   4.00000000 ,   4.00000000 ,   30.0000000
0000001326,   5.00000000 ,   10.0000000 ,   10.0000000 ,   4.00000000 ,   4.00000000 ,   30.0000000
0000001327,   6.00000000 ,   10.0000000 ,   10.0000000 ,   4.00000000 ,   4.00000000 ,   30.0000000
0000001328,   7.00000000 ,   10.0000000 ,   10.0000000 ,   4.00000000 ,   4.00000000 ,   30.0000000
0000001329,   8.00000000 ,   10.0000000 ,   10.0000000 ,   4.00000000 ,   4.00000000 ,   30.0000000
0000001330,   9.00000000 ,   10.0000000 ,   10.0000000 ,   4.00000000 ,   4.00000000 ,   30.0000000
0000001331,   10.0000000 ,   10.0000000 ,   10.0000000 ,   4.00000000 ,   4.00000000 ,   30.0000000
