node, X coordinate (m), Y coordinate (m), Z coordinate (m), Liquid Pressure (MPa), Vapor Pressure (MPa), Temperature (deg C)
0000000001,   0.00000000 ,   0.00000000 ,   0.00000000 ,   6.00000000 ,   6.00000000 ,   80.0000000
0000000002,   1.00000000 ,   0.00000000 ,   0.00000000 ,   6.00000000 ,   6.00000000 ,   80.0000000
0000000003,   2.00000000 ,   0.00000000 ,   0.00000000 ,   6.00000000 ,   6.00000000 ,   80.0000000
0000000004,   3.00000000 ,   0.00000000 ,   0.00000000 ,   6.00000000 ,   6.00000000 ,   80.0000000
0000000005,   4.00000000 ,   0.00000000 ,   0.00000000 ,   6.00000000 ,   6.00000000 ,   80.0000000
0000000006,   5.00000000 ,   0.00000000 ,   0.00000000 ,   6.00000000 ,   6.00000000 ,   80.0000000
0000000007,   6.00000000 ,   0.00000000 ,   0.00000000 ,   6.00000000 ,   6.00000000 ,   80.0000000
0000000008,   7.00000000 ,   0.00000000 ,   0.00000000 ,   6.00000000 ,   6.00000000 ,   80.0000000
0000000009,   8.00000000 ,   0.00000000 ,   0.00000000 ,   6.00000000 ,   6.00000000 ,   80.0000000
0000000010,   9.00000000 ,   0.00000000 ,   0.00000000 ,   6.00000000 ,   6.00000000 ,   80.0000000
0000000011,   10.0000000 ,   0.00000000 ,   0.00000000 ,   6.00000000 ,   6.00000000 ,   80.0000000
0000000012,   0.00000000 ,   1.00000000 ,   0.00000000 ,   5.79981047 ,   5.79981047 ,   80.0000000
0000000013,   1.00000000 ,   1.00000000 ,   0.00000000 ,   5.79981088 ,   5.79981088 ,   80.0000000
0000000014,   2.00000000 ,   1.00000000 ,   0.00000000 ,   5.79981195 ,   5.79981195 ,   80.0000000
0000000015,   3.00000000 ,   1.00000000 ,   0.00000000 ,   5.79981325 ,   5.79981325 ,   80.0000000
0000000016,   4.00000000 ,   1.00000000 ,   0.00000000 ,   5.79981429 ,   5.79981429 ,   80.0000000
0000000017,   5.00000000 ,   1.00000000 ,   0.00000000 ,   5.79981468 ,   5.79981468 ,   80.0000000
0000000018,   6.00000000 ,   1.00000000 ,   0.00000000 ,   5.79981429 ,   5.79981429 ,   80.0000000
0000000019,   7.00000000 ,   1.00000000 ,   0.00000000 ,   5.79981325 ,   5.79981325 ,   80.0000000
0000000020,   8.00000000 ,   1.00000000 ,   0.00000000 ,   5.79981195 ,   5.79981195 ,   80.0000000
0000000021,   9.00000000 ,   1.00000000 ,   0.00000000 ,   5.79981088 ,   5.79981088 ,   80.0000000
0000000022,   10.0000000 ,   1.00000000 ,   0.00000000 ,   5.79981047 ,   5.79981047 ,   80.0000000
0000000023,   0.00000000 ,   2.00000000 ,   0.00000000 ,   5.59955093 ,   5.59955093 ,   80.0000000
0000000024,   1.00000000 ,   2.00000000 ,   0.00000000 ,   5.59955188 ,   5.59955188 ,   80.0000000
0000000025,   2.00000000 ,   2.00000000 ,   0.00000000 ,   5.59955434 ,   5.59955434 ,   80.0000000
0000000026,   3.00000000 ,   2.00000000 ,   0.00000000 ,   5.59955731 ,   5.59955731 ,   80.0000000
0000000027,   4.00000000 ,   2.00000000 ,   0.00000000 ,   5.59955966 ,   5.59955966 ,   80.0000000
0000000028,   5.00000000 ,   2.00000000 ,   0.00000000 ,   5.59956054 ,   5.59956054 ,   80.0000000
0000000029,   6.00000000 ,   2.00000000 ,   0.00000000 ,   5.59955966 ,   5.59955966 ,   80.0000000
0000000030,   7.00000000 ,   2.00000000 ,   0.00000000 ,   5.59955731 ,   5.59955731 ,   80.0000000
0000000031,   8.00000000 ,   2.00000000 ,   0.00000000 ,   5.59955434 ,   5.59955434 ,   80.0000000
0000000032,   9.00000000 ,   2.00000000 ,   0.00000000 ,   5.59955188 ,   5.59955188 ,   80.0000000
0000000033,   10.0000000 ,   2.00000000 ,   0.00000000 ,   5.59955093 ,   5.59955093 ,   80.0000000
0000000034,   0.00000000 ,   3.00000000 ,   0.00000000 ,   5.39967707 ,   5.39967707 ,   80.0000000
0000000035,   1.00000000 ,   3.00000000 ,   0.00000000 ,   5.39967884 ,   5.39967884 ,   80.0000000
0000000036,   2.00000000 ,   3.00000000 ,   0.00000000 ,   5.39968337 ,   5.39968337 ,   80.0000000
0000000037,   3.00000000 ,   3.00000000 ,   0.00000000 ,   5.39968877 ,   5.39968877 ,   80.0000000
0000000038,   4.00000000 ,   3.00000000 ,   0.00000000 ,   5.39969301 ,   5.39969301 ,   80.0000000
0000000039,   5.00000000 ,   3.00000000 ,   0.00000000 ,   5.39969460 ,   5.39969460 ,   80.0000000
0000000040,   6.00000000 ,   3.00000000 ,   0.00000000 ,   5.39969301 ,   5.39969301 ,   80.0000000
0000000041,   7.00000000 ,   3.00000000 ,   0.00000000 ,   5.39968877 ,   5.39968877 ,   80.0000000
0000000042,   8.00000000 ,   3.00000000 ,   0.00000000 ,   5.39968337 ,   5.39968337 ,   80.0000000
0000000043,   9.00000000 ,   3.00000000 ,   0.00000000 ,   5.39967884 ,   5.39967884 ,   80.0000000
0000000044,   10.0000000 ,   3.00000000 ,   0.00000000 ,   5.39967707 ,   5.39967707 ,   80.0000000
0000000045,   0.00000000 ,   4.00000000 ,   0.00000000 ,   5.20017327 ,   5.20017327 ,   80.0000000
0000000046,   1.00000000 ,   4.00000000 ,   0.00000000 ,   5.20017637 ,   5.20017637 ,   80.0000000
0000000047,   2.00000000 ,   4.00000000 ,   0.00000000 ,   5.20018415 ,   5.20018415 ,   80.0000000
0000000048,   3.00000000 ,   4.00000000 ,   0.00000000 ,   5.20019325 ,   5.20019325 ,   80.0000000
0000000049,   4.00000000 ,   4.00000000 ,   0.00000000 ,   5.20020028 ,   5.20020028 ,   80.0000000
0000000050,   5.00000000 ,   4.00000000 ,   0.00000000 ,   5.20020289 ,   5.20020289 ,   80.0000000
0000000051,   6.00000000 ,   4.00000000 ,   0.00000000 ,   5.20020028 ,   5.20020028 ,   80.0000000
0000000052,   7.00000000 ,   4.00000000 ,   0.00000000 ,   5.20019325 ,   5.20019325 ,   80.0000000
0000000053,   8.00000000 ,   4.00000000 ,   0.00000000 ,   5.20018415 ,   5.20018415 ,   80.0000000
0000000054,   9.00000000 ,   4.00000000 ,   0.00000000 ,   5.20017637 ,   5.20017637 ,   80.0000000
0000000055,   10.0000000 ,   4.00000000 ,   0.00000000 ,   5.20017327 ,   5.20017327 ,   80.0000000
0000000056,   0.00000000 ,   5.00000000 ,   0.00000000 ,   5.00087260 ,   5.00087260 ,   80.0000000
0000000057,   1.00000000 ,   5.00000000 ,   0.00000000 ,   5.00087786 ,   5.00087786 ,   80.0000000
0000000058,   2.00000000 ,   5.00000000 ,   0.00000000 ,   5.00089067 ,   5.00089067 ,   80.0000000
0000000059,   3.00000000 ,   5.00000000 ,   0.00000000 ,   5.00090519 ,   5.00090519 ,   80.0000000
0000000060,   4.00000000 ,   5.00000000 ,   0.00000000 ,   5.00091612 ,   5.00091612 ,   80.0000000
0000000061,   5.00000000 ,   5.00000000 ,   0.00000000 ,   5.00092013 ,   5.00092013 ,   80.0000000
0000000062,   6.00000000 ,   5.00000000 ,   0.00000000 ,   5.00091612 ,   5.00091612 ,   80.0000000
0000000063,   7.00000000 ,   5.00000000 ,   0.00000000 ,   5.00090519 ,   5.00090519 ,   80.0000000
0000000064,   8.00000000 ,   5.00000000 ,   0.00000000 ,   5.00089067 ,   5.00089067 ,   80.0000000
0000000065,   9.00000000 ,   5.00000000 ,   0.00000000 ,   5.00087786 ,   5.00087786 ,   80.0000000
0000000066,   10.0000000 ,   5.00000000 ,   0.00000000 ,   5.00087260 ,   5.00087260 ,   80.0000000
0000000067,   0.00000000 ,   6.00000000 ,   0.00000000 ,   4.80157133 ,   4.80157133 ,   80.0000000
0000000068,   1.00000000 ,   6.00000000 ,   0.00000000 ,   4.80158004 ,   4.80158004 ,   80.0000000
0000000069,   2.00000000 ,   6.00000000 ,   0.00000000 ,   4.80160026 ,   4.80160026 ,   80.0000000
0000000070,   3.00000000 ,   6.00000000 ,   0.00000000 ,   4.80162217 ,   4.80162217 ,   80.0000000
0000000071,   4.00000000 ,   6.00000000 ,   0.00000000 ,   4.80163810 ,   4.80163810 ,   80.0000000
0000000072,   5.00000000 ,   6.00000000 ,   0.00000000 ,   4.80164384 ,   4.80164384 ,   80.0000000
0000000073,   6.00000000 ,   6.00000000 ,   0.00000000 ,   4.80163810 ,   4.80163810 ,   80.0000000
0000000074,   7.00000000 ,   6.00000000 ,   0.00000000 ,   4.80162217 ,   4.80162217 ,   80.0000000
0000000075,   8.00000000 ,   6.00000000 ,   0.00000000 ,   4.80160026 ,   4.80160026 ,   80.0000000
0000000076,   9.00000000 ,   6.00000000 ,   0.00000000 ,   4.80158004 ,   4.80158004 ,   80.0000000
0000000077,   10.0000000 ,   6.00000000 ,   0.00000000 ,   4.80157133 ,   4.80157133 ,   80.0000000
0000000078,   0.00000000 ,   7.00000000 ,   0.00000000 ,   4.60207283 ,   4.60207283 ,   80.0000000
0000000079,   1.00000000 ,   7.00000000 ,   0.00000000 ,   4.60208688 ,   4.60208688 ,   80.0000000
0000000080,   2.00000000 ,   7.00000000 ,   0.00000000 ,   4.60211679 ,   4.60211679 ,   80.0000000
0000000081,   3.00000000 ,   7.00000000 ,   0.00000000 ,   4.60214700 ,   4.60214700 ,   80.0000000
0000000082,   4.00000000 ,   7.00000000 ,   0.00000000 ,   4.60216789 ,   4.60216789 ,   80.0000000
0000000083,   5.00000000 ,   7.00000000 ,   0.00000000 ,   4.60217522 ,   4.60217522 ,   80.0000000
0000000084,   6.00000000 ,   7.00000000 ,   0.00000000 ,   4.60216789 ,   4.60216789 ,   80.0000000
0000000085,   7.00000000 ,   7.00000000 ,   0.00000000 ,   4.60214700 ,   4.60214700 ,   80.0000000
0000000086,   8.00000000 ,   7.00000000 ,   0.00000000 ,   4.60211679 ,   4.60211679 ,   80.0000000
0000000087,   9.00000000 ,   7.00000000 ,   0.00000000 ,   4.60208688 ,   4.60208688 ,   80.0000000
0000000088,   10.0000000 ,   7.00000000 ,   0.00000000 ,   4.60207283 ,   4.60207283 ,   80.0000000
0000000089,   0.00000000 ,   8.00000000 ,   0.00000000 ,   4.40216548 ,   4.40216548 ,   80.0000000
0000000090,   1.00000000 ,   8.00000000 ,   0.00000000 ,   4.40218634 ,   4.40218634 ,   80.0000000
0000000091,   2.00000000 ,   8.00000000 ,   0.00000000 ,   4.40222483 ,   4.40222483 ,   80.0000000
0000000092,   3.00000000 ,   8.00000000 ,   0.00000000 ,   4.40225999 ,   4.40225999 ,   80.0000000
0000000093,   4.00000000 ,   8.00000000 ,   0.00000000 ,   4.40228274 ,   4.40228274 ,   80.0000000
0000000094,   5.00000000 ,   8.00000000 ,   0.00000000 ,   4.40229046 ,   4.40229046 ,   80.0000000
0000000095,   6.00000000 ,   8.00000000 ,   0.00000000 ,   4.40228274 ,   4.40228274 ,   80.0000000
0000000096,   7.00000000 ,   8.00000000 ,   0.00000000 ,   4.40225999 ,   4.40225999 ,   80.0000000
0000000097,   8.00000000 ,   8.00000000 ,   0.00000000 ,   4.40222483 ,   4.40222483 ,   80.0000000
0000000098,   9.00000000 ,   8.00000000 ,   0.00000000 ,   4.40218634 ,   4.40218634 ,   80.0000000
0000000099,   10.0000000 ,   8.00000000 ,   0.00000000 ,   4.40216548 ,   4.40216548 ,   80.0000000
0000000100,   0.00000000 ,   9.00000000 ,   0.00000000 ,   4.20159608 ,   4.20159608 ,   80.0000000
0000000101,   1.00000000 ,   9.00000000 ,   0.00000000 ,   4.20161912 ,   4.20161912 ,   80.0000000
0000000102,   2.00000000 ,   9.00000000 ,   0.00000000 ,   4.20165362 ,   4.20165362 ,   80.0000000
0000000103,   3.00000000 ,   9.00000000 ,   0.00000000 ,   4.20168131 ,   4.20168131 ,   80.0000000
0000000104,   4.00000000 ,   9.00000000 ,   0.00000000 ,   4.20169786 ,   4.20169786 ,   80.0000000
0000000105,   5.00000000 ,   9.00000000 ,   0.00000000 ,   4.20170326 ,   4.20170326 ,   80.0000000
0000000106,   6.00000000 ,   9.00000000 ,   0.00000000 ,   4.20169786 ,   4.20169786 ,   80.0000000
0000000107,   7.00000000 ,   9.00000000 ,   0.00000000 ,   4.20168131 ,   4.20168131 ,   80.0000000
0000000108,   8.00000000 ,   9.00000000 ,   0.00000000 ,   4.20165362 ,   4.20165362 ,   80.0000000
0000000109,   9.00000000 ,   9.00000000 ,   0.00000000 ,   4.20161912 ,   4.20161912 ,   80.0000000
0000000110,   10.0000000 ,   9.00000000 ,   0.00000000 ,   4.20159608 ,   4.20159608 ,   80.0000000
0000000111,   0.00000000 ,   10.0000000 ,   0.00000000 ,   4.00000000 ,   4.00000000 ,   80.0000000
0000000112,   1.00000000 ,   10.0000000 ,   0.00000000 ,   4.00000000 ,   4.00000000 ,   80.0000000
0000000113,   2.00000000 ,   10.0000000 ,   0.00000000 ,   4.00000000 ,   4.00000000 ,   80.0000000
0000000114,   3.00000000 ,   10.0000000 ,   0.00000000 ,   4.00000000 ,   4.00000000 ,   80.0000000
0000000115,   4.00000000 ,   10.0000000 ,   0.00000000 ,   4.00000000 ,   4.00000000 ,   80.0000000
0000000116,   5.00000000 ,   10.0000000 ,   0.00000000 ,   4.00000000 ,   4.00000000 ,   80.0000000
0000000117,   6.00000000 ,   10.0000000 ,   0.00000000 ,   4.00000000 ,   4.00000000 ,   80.0000000
0000000118,   7.00000000 ,   10.0000000 ,   0.00000000 ,   4.00000000 ,   4.00000000 ,   80.0000000
0000000119,   8.00000000 ,   10.0000000 ,   0.00000000 ,   4.00000000 ,   4.00000000 ,   80.0000000
0000000120,   9.00000000 ,   10.0000000 ,   0.00000000 ,   4.00000000 ,   4.00000000 ,   80.0000000
0000000121,   10.0000000 ,   10.0000000 ,   0.00000000 ,   4.00000000 ,   4.00000000 ,   80.0000000
0000000122,   0.00000000 ,   0.00000000 ,   1.00000000 ,   6.00000000 ,   6.00000000 ,   67.3507501
0000000123,   1.00000000 ,   0.00000000 ,   1.00000000 ,   6.00000000 ,   6.00000000 ,   67.3507582
0000000124,   2.00000000 ,   0.00000000 ,   1.00000000 ,   6.00000000 ,   6.00000000 ,   67.3507791
0000000125,   3.00000000 ,   0.00000000 ,   1.00000000 ,   6.00000000 ,   6.00000000 ,   67.3508047
0000000126,   4.00000000 ,   0.00000000 ,   1.00000000 ,   6.00000000 ,   6.00000000 ,   67.3508250
0000000127,   5.00000000 ,   0.00000000 ,   1.00000000 ,   6.00000000 ,   6.00000000 ,   67.3508327
0000000128,   6.00000000 ,   0.00000000 ,   1.00000000 ,   6.00000000 ,   6.00000000 ,   67.3508250
0000000129,   7.00000000 ,   0.00000000 ,   1.00000000 ,   6.00000000 ,   6.00000000 ,   67.3508047
0000000130,   8.00000000 ,   0.00000000 ,   1.00000000 ,   6.00000000 ,   6.00000000 ,   67.3507791
0000000131,   9.00000000 ,   0.00000000 ,   1.00000000 ,   6.00000000 ,   6.00000000 ,   67.3507582
0000000132,   10.0000000 ,   0.00000000 ,   1.00000000 ,   6.00000000 ,   6.00000000 ,   67.3507501
0000000133,   0.00000000 ,   1.00000000 ,   1.00000000 ,   5.79065120 ,   5.79065120 ,   70.1359414
0000000134,   1.00000000 ,   1.00000000 ,   1.00000000 ,   5.79065185 ,   5.79065185 ,   70.1359454
0000000135,   2.00000000 ,   1.00000000 ,   1.00000000 ,   5.79065352 ,   5.79065352 ,   70.1359564
0000000136,   3.00000000 ,   1.00000000 ,   1.00000000 ,   5.79065554 ,   5.79065554 ,   70.1359702
0000000137,   4.00000000 ,   1.00000000 ,   1.00000000 ,   5.79065714 ,   5.79065714 ,   70.1359816
0000000138,   5.00000000 ,   1.00000000 ,   1.00000000 ,   5.79065774 ,   5.79065774 ,   70.1359859
0000000139,   6.00000000 ,   1.00000000 ,   1.00000000 ,   5.79065714 ,   5.79065714 ,   70.1359816
0000000140,   7.00000000 ,   1.00000000 ,   1.00000000 ,   5.79065554 ,   5.79065554 ,   70.1359702
0000000141,   8.00000000 ,   1.00000000 ,   1.00000000 ,   5.79065352 ,   5.79065352 ,   70.1359564
0000000142,   9.00000000 ,   1.00000000 ,   1.00000000 ,   5.79065185 ,   5.79065185 ,   70.1359454
0000000143,   10.0000000 ,   1.00000000 ,   1.00000000 ,   5.79065120 ,   5.79065120 ,   70.1359414
0000000144,   0.00000000 ,   2.00000000 ,   1.00000000 ,   5.58806225 ,   5.58806225 ,   71.5598667
0000000145,   1.00000000 ,   2.00000000 ,   1.00000000 ,   5.58806382 ,   5.58806382 ,   71.5598643
0000000146,   2.00000000 ,   2.00000000 ,   1.00000000 ,   5.58806781 ,   5.58806781 ,   71.5598606
0000000147,   3.00000000 ,   2.00000000 ,   1.00000000 ,   5.58807255 ,   5.58807255 ,   71.5598592
0000000148,   4.00000000 ,   2.00000000 ,   1.00000000 ,   5.58807627 ,   5.58807627 ,   71.5598597
0000000149,   5.00000000 ,   2.00000000 ,   1.00000000 ,   5.58807766 ,   5.58807766 ,   71.5598602
0000000150,   6.00000000 ,   2.00000000 ,   1.00000000 ,   5.58807627 ,   5.58807627 ,   71.5598597
0000000151,   7.00000000 ,   2.00000000 ,   1.00000000 ,   5.58807255 ,   5.58807255 ,   71.5598592
0000000152,   8.00000000 ,   2.00000000 ,   1.00000000 ,   5.58806781 ,   5.58806781 ,   71.5598606
0000000153,   9.00000000 ,   2.00000000 ,   1.00000000 ,   5.58806382 ,   5.58806382 ,   71.5598643
0000000154,   10.0000000 ,   2.00000000 ,   1.00000000 ,   5.58806225 ,   5.58806225 ,   71.5598667
0000000155,   0.00000000 ,   3.00000000 ,   1.00000000 ,   5.38826051 ,   5.38826051 ,   72.3017310
0000000156,   1.00000000 ,   3.00000000 ,   1.00000000 ,   5.38826371 ,   5.38826371 ,   72.3017073
0000000157,   2.00000000 ,   3.00000000 ,   1.00000000 ,   5.38827172 ,   5.38827172 ,   72.3016623
0000000158,   3.00000000 ,   3.00000000 ,   1.00000000 ,   5.38828104 ,   5.38828104 ,   72.3016238
0000000159,   4.00000000 ,   3.00000000 ,   1.00000000 ,   5.38828820 ,   5.38828820 ,   72.3016014
0000000160,   5.00000000 ,   3.00000000 ,   1.00000000 ,   5.38829086 ,   5.38829086 ,   72.3015943
0000000161,   6.00000000 ,   3.00000000 ,   1.00000000 ,   5.38828820 ,   5.38828820 ,   72.3016014
0000000162,   7.00000000 ,   3.00000000 ,   1.00000000 ,   5.38828104 ,   5.38828104 ,   72.3016238
0000000163,   8.00000000 ,   3.00000000 ,   1.00000000 ,   5.38827172 ,   5.38827172 ,   72.3016623
0000000164,   9.00000000 ,   3.00000000 ,   1.00000000 ,   5.38826371 ,   5.38826371 ,   72.3017073
0000000165,   10.0000000 ,   3.00000000 ,   1.00000000 ,   5.38826051 ,   5.38826051 ,   72.3017310
0000000166,   0.00000000 ,   4.00000000 ,   1.00000000 ,   5.18957937 ,   5.18957937 ,   72.6910533
0000000167,   1.00000000 ,   4.00000000 ,   1.00000000 ,   5.18958587 ,   5.18958587 ,   72.6909321
0000000168,   2.00000000 ,   4.00000000 ,   1.00000000 ,   5.18960154 ,   5.18960154 ,   72.6907231
0000000169,   3.00000000 ,   4.00000000 ,   1.00000000 ,   5.18961910 ,   5.18961910 ,   72.6905559
0000000170,   4.00000000 ,   4.00000000 ,   1.00000000 ,   5.18963219 ,   5.18963219 ,   72.6904624
0000000171,   5.00000000 ,   4.00000000 ,   1.00000000 ,   5.18963697 ,   5.18963697 ,   72.6904336
0000000172,   6.00000000 ,   4.00000000 ,   1.00000000 ,   5.18963219 ,   5.18963219 ,   72.6904624
0000000173,   7.00000000 ,   4.00000000 ,   1.00000000 ,   5.18961910 ,   5.18961910 ,   72.6905559
0000000174,   8.00000000 ,   4.00000000 ,   1.00000000 ,   5.18960154 ,   5.18960154 ,   72.6907231
0000000175,   9.00000000 ,   4.00000000 ,   1.00000000 ,   5.18958587 ,   5.18958587 ,   72.6909321
0000000176,   10.0000000 ,   4.00000000 ,   1.00000000 ,   5.18957937 ,   5.18957937 ,   72.6910533
0000000177,   0.00000000 ,   5.00000000 ,   1.00000000 ,   4.99127661 ,   4.99127661 ,   72.8969868
0000000178,   1.00000000 ,   5.00000000 ,   1.00000000 ,   4.99129028 ,   4.99129028 ,   72.8963733
0000000179,   2.00000000 ,   5.00000000 ,   1.00000000 ,   4.99132113 ,   4.99132113 ,   72.8954665
0000000180,   3.00000000 ,   5.00000000 ,   1.00000000 ,   4.99135368 ,   4.99135368 ,   72.8948240
0000000181,   4.00000000 ,   5.00000000 ,   1.00000000 ,   4.99137684 ,   4.99137684 ,   72.8944968
0000000182,   5.00000000 ,   5.00000000 ,   1.00000000 ,   4.99138509 ,   4.99138509 ,   72.8944014
0000000183,   6.00000000 ,   5.00000000 ,   1.00000000 ,   4.99137684 ,   4.99137684 ,   72.8944968
0000000184,   7.00000000 ,   5.00000000 ,   1.00000000 ,   4.99135368 ,   4.99135368 ,   72.8948240
0000000185,   8.00000000 ,   5.00000000 ,   1.00000000 ,   4.99132113 ,   4.99132113 ,   72.8954665
0000000186,   9.00000000 ,   5.00000000 ,   1.00000000 ,   4.99129028 ,   4.99129028 ,   72.8963733
0000000187,   10.0000000 ,   5.00000000 ,   1.00000000 ,   4.99127661 ,   4.99127661 ,   72.8969868
0000000188,   0.00000000 ,   6.00000000 ,   1.00000000 ,   4.79300808 ,   4.79300808 ,   73.0143151
0000000189,   1.00000000 ,   6.00000000 ,   1.00000000 ,   4.79303865 ,   4.79303865 ,   73.0110383
0000000190,   2.00000000 ,   6.00000000 ,   1.00000000 ,   4.79309999 ,   4.79309999 ,   73.0070790
0000000191,   3.00000000 ,   6.00000000 ,   1.00000000 ,   4.79315883 ,   4.79315883 ,   73.0046439
0000000192,   4.00000000 ,   6.00000000 ,   1.00000000 ,   4.79319796 ,   4.79319796 ,   73.0035319
0000000193,   5.00000000 ,   6.00000000 ,   1.00000000 ,   4.79321140 ,   4.79321140 ,   73.0032276
0000000194,   6.00000000 ,   6.00000000 ,   1.00000000 ,   4.79319796 ,   4.79319796 ,   73.0035319
0000000195,   7.00000000 ,   6.00000000 ,   1.00000000 ,   4.79315883 ,   4.79315883 ,   73.0046439
0000000196,   8.00000000 ,   6.00000000 ,   1.00000000 ,   4.79309998 ,   4.79309998 ,   73.0070790
0000000197,   9.00000000 ,   6.00000000 ,   1.00000000 ,   4.79303865 ,   4.79303865 ,   73.0110383
0000000198,   10.0000000 ,   6.00000000 ,   1.00000000 ,   4.79300808 ,   4.79300808 ,   73.0143151
0000000199,   0.00000000 ,   7.00000000 ,   1.00000000 ,   4.59460221 ,   4.59460221 ,   73.1163801
0000000200,   1.00000000 ,   7.00000000 ,   1.00000000 ,   4.59467542 ,   4.59467542 ,   73.0977377
0000000201,   2.00000000 ,   7.00000000 ,   1.00000000 ,   4.59479644 ,   4.59479644 ,   73.0805299
0000000202,   3.00000000 ,   7.00000000 ,   1.00000000 ,   4.59489746 ,   4.59489746 ,   73.0717167
0000000203,   4.00000000 ,   7.00000000 ,   1.00000000 ,   4.59495843 ,   4.59495843 ,   73.0681982
0000000204,   5.00000000 ,   7.00000000 ,   1.00000000 ,   4.59497836 ,   4.59497836 ,   73.0673073
0000000205,   6.00000000 ,   7.00000000 ,   1.00000000 ,   4.59495843 ,   4.59495843 ,   73.0681982
0000000206,   7.00000000 ,   7.00000000 ,   1.00000000 ,   4.59489746 ,   4.59489746 ,   73.0717167
0000000207,   8.00000000 ,   7.00000000 ,   1.00000000 ,   4.59479644 ,   4.59479644 ,   73.0805299
0000000208,   9.00000000 ,   7.00000000 ,   1.00000000 ,   4.59467542 ,   4.59467542 ,   73.0977377
0000000209,   10.0000000 ,   7.00000000 ,   1.00000000 ,   4.59460221 ,   4.59460221 ,   73.1163801
0000000210,   0.00000000 ,   8.00000000 ,   1.00000000 ,   4.39598953 ,   4.39598953 ,   73.3470158
0000000211,   1.00000000 ,   8.00000000 ,   1.00000000 ,   4.39617120 ,   4.39617120 ,   73.2346265
0000000212,   2.00000000 ,   8.00000000 ,   1.00000000 ,   4.39639503 ,   4.39639503 ,   73.1621707
0000000213,   3.00000000 ,   8.00000000 ,   1.00000000 ,   4.39654856 ,   4.39654856 ,   73.1327637
0000000214,   4.00000000 ,   8.00000000 ,   1.00000000 ,   4.39662975 ,   4.39662975 ,   73.1227974
0000000215,   5.00000000 ,   8.00000000 ,   1.00000000 ,   4.39665455 ,   4.39665455 ,   73.1204990
0000000216,   6.00000000 ,   8.00000000 ,   1.00000000 ,   4.39662975 ,   4.39662975 ,   73.1227974
0000000217,   7.00000000 ,   8.00000000 ,   1.00000000 ,   4.39654856 ,   4.39654856 ,   73.1327637
0000000218,   8.00000000 ,   8.00000000 ,   1.00000000 ,   4.39639503 ,   4.39639503 ,   73.1621707
0000000219,   9.00000000 ,   8.00000000 ,   1.00000000 ,   4.39617120 ,   4.39617120 ,   73.2346265
0000000220,   10.0000000 ,   8.00000000 ,   1.00000000 ,   4.39598953 ,   4.39598953 ,   73.3470158
0000000221,   0.00000000 ,   9.00000000 ,   1.00000000 ,   4.19731460 ,   4.19731460 ,   74.2949612
0000000222,   1.00000000 ,   9.00000000 ,   1.00000000 ,   4.19770721 ,   4.19770721 ,   73.5791030
0000000223,   2.00000000 ,   9.00000000 ,   1.00000000 ,   4.19802575 ,   4.19802575 ,   73.2992307
0000000224,   3.00000000 ,   9.00000000 ,   1.00000000 ,   4.19819319 ,   4.19819319 ,   73.2152707
0000000225,   4.00000000 ,   9.00000000 ,   1.00000000 ,   4.19826761 ,   4.19826761 ,   73.1919273
0000000226,   5.00000000 ,   9.00000000 ,   1.00000000 ,   4.19828845 ,   4.19828845 ,   73.1870968
0000000227,   6.00000000 ,   9.00000000 ,   1.00000000 ,   4.19826761 ,   4.19826761 ,   73.1919273
0000000228,   7.00000000 ,   9.00000000 ,   1.00000000 ,   4.19819319 ,   4.19819319 ,   73.2152707
0000000229,   8.00000000 ,   9.00000000 ,   1.00000000 ,   4.19802575 ,   4.19802575 ,   73.2992307
0000000230,   9.00000000 ,   9.00000000 ,   1.00000000 ,   4.19770721 ,   4.19770721 ,   73.5791030
0000000231,   10.0000000 ,   9.00000000 ,   1.00000000 ,   4.19731460 ,   4.19731460 ,   74.2949612
0000000232,   0.00000000 ,   10.0000000 ,   1.00000000 ,   4.00000000 ,   4.00000000 ,   79.0828567
0000000233,   1.00000000 ,   10.0000000 ,   1.00000000 ,   4.00000000 ,   4.00000000 ,   74.2902642
0000000234,   2.00000000 ,   10.0000000 ,   1.00000000 ,   4.00000000 ,   4.00000000 ,   73.4629233
0000000235,   3.00000000 ,   10.0000000 ,   1.00000000 ,   4.00000000 ,   4.00000000 ,   73.2979509
0000000236,   4.00000000 ,   10.0000000 ,   1.00000000 ,   4.00000000 ,   4.00000000 ,   73.2611673
0000000237,   5.00000000 ,   10.0000000 ,   1.00000000 ,   4.00000000 ,   4.00000000 ,   73.2542980
0000000238,   6.00000000 ,   10.0000000 ,   1.00000000 ,   4.00000000 ,   4.00000000 ,   73.2611673
0000000239,   7.00000000 ,   10.0000000 ,   1.00000000 ,   4.00000000 ,   4.00000000 ,   73.2979509
0000000240,   8.00000000 ,   10.0000000 ,   1.00000000 ,   4.00000000 ,   4.00000000 ,   73.4629233
0000000241,   9.00000000 ,   10.0000000 ,   1.00000000 ,   4.00000000 ,   4.00000000 ,   74.2902642
0000000242,   10.0000000 ,   10.0000000 ,   1.00000000 ,   4.00000000 ,   4.00000000 ,   79.0828567
0000000243,   0.00000000 ,   0.00000000 ,   2.00000000 ,   6.00000000 ,   6.00000000 ,   63.1179285
0000000244,   1.00000000 ,   0.00000000 ,   2.00000000 ,   6.00000000 ,   6.00000000 ,   63.1179336
0000000245,   2.00000000 ,   0.00000000 ,   2.00000000 ,   6.00000000 ,   6.00000000 ,   63.1179467
0000000246,   3.00000000 ,   0.00000000 ,   2.00000000 ,   6.00000000 ,   6.00000000 ,   63.1179629
0000000247,   4.00000000 ,   0.00000000 ,   2.00000000 ,   6.00000000 ,   6.00000000 ,   63.1179759
0000000248,   5.00000000 ,   0.00000000 ,   2.00000000 ,   6.00000000 ,   6.00000000 ,   63.1179809
0000000249,   6.00000000 ,   0.00000000 ,   2.00000000 ,   6.00000000 ,   6.00000000 ,   63.1179759
0000000250,   7.00000000 ,   0.00000000 ,   2.00000000 ,   6.00000000 ,   6.00000000 ,   63.1179629
0000000251,   8.00000000 ,   0.00000000 ,   2.00000000 ,   6.00000000 ,   6.00000000 ,   63.1179467
0000000252,   9.00000000 ,   0.00000000 ,   2.00000000 ,   6.00000000 ,   6.00000000 ,   63.1179336
0000000253,   10.0000000 ,   0.00000000 ,   2.00000000 ,   6.00000000 ,   6.00000000 ,   63.1179285
0000000254,   0.00000000 ,   1.00000000 ,   2.00000000 ,   5.79059060 ,   5.79059060 ,   64.8055965
0000000255,   1.00000000 ,   1.00000000 ,   2.00000000 ,   5.79059132 ,   5.79059132 ,   64.8055990
0000000256,   2.00000000 ,   1.00000000 ,   2.00000000 ,   5.79059318 ,   5.79059318 ,   64.8056063
0000000257,   3.00000000 ,   1.00000000 ,   2.00000000 ,   5.79059543 ,   5.79059543 ,   64.8056159
0000000258,   4.00000000 ,   1.00000000 ,   2.00000000 ,   5.79059720 ,   5.79059720 ,   64.8056241
0000000259,   5.00000000 ,   1.00000000 ,   2.00000000 ,   5.79059787 ,   5.79059787 ,   64.8056272
0000000260,   6.00000000 ,   1.00000000 ,   2.00000000 ,   5.79059720 ,   5.79059720 ,   64.8056241
0000000261,   7.00000000 ,   1.00000000 ,   2.00000000 ,   5.79059543 ,   5.79059543 ,   64.8056159
0000000262,   8.00000000 ,   1.00000000 ,   2.00000000 ,   5.79059318 ,   5.79059318 ,   64.8056063
0000000263,   9.00000000 ,   1.00000000 ,   2.00000000 ,   5.79059132 ,   5.79059132 ,   64.8055990
0000000264,   10.0000000 ,   1.00000000 ,   2.00000000 ,   5.79059060 ,   5.79059060 ,   64.8055965
0000000265,   0.00000000 ,   2.00000000 ,   2.00000000 ,   5.58604013 ,   5.58604013 ,   65.9621901
0000000266,   1.00000000 ,   2.00000000 ,   2.00000000 ,   5.58604188 ,   5.58604188 ,   65.9621857
0000000267,   2.00000000 ,   2.00000000 ,   2.00000000 ,   5.58604635 ,   5.58604635 ,   65.9621776
0000000268,   3.00000000 ,   2.00000000 ,   2.00000000 ,   5.58605167 ,   5.58605167 ,   65.9621720
0000000269,   4.00000000 ,   2.00000000 ,   2.00000000 ,   5.58605585 ,   5.58605585 ,   65.9621699
0000000270,   5.00000000 ,   2.00000000 ,   2.00000000 ,   5.58605741 ,   5.58605741 ,   65.9621695
0000000271,   6.00000000 ,   2.00000000 ,   2.00000000 ,   5.58605585 ,   5.58605585 ,   65.9621699
0000000272,   7.00000000 ,   2.00000000 ,   2.00000000 ,   5.58605167 ,   5.58605167 ,   65.9621720
0000000273,   8.00000000 ,   2.00000000 ,   2.00000000 ,   5.58604635 ,   5.58604635 ,   65.9621776
0000000274,   9.00000000 ,   2.00000000 ,   2.00000000 ,   5.58604188 ,   5.58604188 ,   65.9621857
0000000275,   10.0000000 ,   2.00000000 ,   2.00000000 ,   5.58604013 ,   5.58604013 ,   65.9621901
0000000276,   0.00000000 ,   3.00000000 ,   2.00000000 ,   5.38459617 ,   5.38459617 ,   66.6862693
0000000277,   1.00000000 ,   3.00000000 ,   2.00000000 ,   5.38459975 ,   5.38459975 ,   66.6862373
0000000278,   2.00000000 ,   3.00000000 ,   2.00000000 ,   5.38460873 ,   5.38460873 ,   66.6861748
0000000279,   3.00000000 ,   3.00000000 ,   2.00000000 ,   5.38461921 ,   5.38461921 ,   66.6861202
0000000280,   4.00000000 ,   3.00000000 ,   2.00000000 ,   5.38462727 ,   5.38462727 ,   66.6860878
0000000281,   5.00000000 ,   3.00000000 ,   2.00000000 ,   5.38463027 ,   5.38463027 ,   66.6860776
0000000282,   6.00000000 ,   3.00000000 ,   2.00000000 ,   5.38462727 ,   5.38462727 ,   66.6860878
0000000283,   7.00000000 ,   3.00000000 ,   2.00000000 ,   5.38461921 ,   5.38461921 ,   66.6861202
0000000284,   8.00000000 ,   3.00000000 ,   2.00000000 ,   5.38460873 ,   5.38460873 ,   66.6861748
0000000285,   9.00000000 ,   3.00000000 ,   2.00000000 ,   5.38459975 ,   5.38459975 ,   66.6862373
0000000286,   10.0000000 ,   3.00000000 ,   2.00000000 ,   5.38459617 ,   5.38459617 ,   66.6862693
0000000287,   0.00000000 ,   4.00000000 ,   2.00000000 ,   5.18496663 ,   5.18496663 ,   67.1151435
0000000288,   1.00000000 ,   4.00000000 ,   2.00000000 ,   5.18497383 ,   5.18497383 ,   67.1149880
0000000289,   2.00000000 ,   4.00000000 ,   2.00000000 ,   5.18499129 ,   5.18499129 ,   67.1147072
0000000290,   3.00000000 ,   4.00000000 ,   2.00000000 ,   5.18501098 ,   5.18501098 ,   67.1144745
0000000291,   4.00000000 ,   4.00000000 ,   2.00000000 ,   5.18502571 ,   5.18502571 ,   67.1143413
0000000292,   5.00000000 ,   4.00000000 ,   2.00000000 ,   5.18503109 ,   5.18503109 ,   67.1142998
0000000293,   6.00000000 ,   4.00000000 ,   2.00000000 ,   5.18502571 ,   5.18502571 ,   67.1143413
0000000294,   7.00000000 ,   4.00000000 ,   2.00000000 ,   5.18501098 ,   5.18501098 ,   67.1144745
0000000295,   8.00000000 ,   4.00000000 ,   2.00000000 ,   5.18499129 ,   5.18499129 ,   67.1147072
0000000296,   9.00000000 ,   4.00000000 ,   2.00000000 ,   5.18497383 ,   5.18497383 ,   67.1149880
0000000297,   10.0000000 ,   4.00000000 ,   2.00000000 ,   5.18496663 ,   5.18496663 ,   67.1151435
0000000298,   0.00000000 ,   5.00000000 ,   2.00000000 ,   4.98633701 ,   4.98633701 ,   67.3617085
0000000299,   1.00000000 ,   5.00000000 ,   2.00000000 ,   4.98635185 ,   4.98635185 ,   67.3609678
0000000300,   2.00000000 ,   5.00000000 ,   2.00000000 ,   4.98638577 ,   4.98638577 ,   67.3597935
0000000301,   3.00000000 ,   5.00000000 ,   2.00000000 ,   4.98642194 ,   4.98642194 ,   67.3589120
0000000302,   4.00000000 ,   5.00000000 ,   2.00000000 ,   4.98644789 ,   4.98644789 ,   67.3584435
0000000303,   5.00000000 ,   5.00000000 ,   2.00000000 ,   4.98645716 ,   4.98645716 ,   67.3583036
0000000304,   6.00000000 ,   5.00000000 ,   2.00000000 ,   4.98644789 ,   4.98644789 ,   67.3584435
0000000305,   7.00000000 ,   5.00000000 ,   2.00000000 ,   4.98642194 ,   4.98642194 ,   67.3589120
0000000306,   8.00000000 ,   5.00000000 ,   2.00000000 ,   4.98638577 ,   4.98638577 ,   67.3597935
0000000307,   9.00000000 ,   5.00000000 ,   2.00000000 ,   4.98635185 ,   4.98635185 ,   67.3609678
0000000308,   10.0000000 ,   5.00000000 ,   2.00000000 ,   4.98633701 ,   4.98633701 ,   67.3617085
0000000309,   0.00000000 ,   6.00000000 ,   2.00000000 ,   4.78823372 ,   4.78823372 ,   67.5109757
0000000310,   1.00000000 ,   6.00000000 ,   2.00000000 ,   4.78826574 ,   4.78826574 ,   67.5073332
0000000311,   2.00000000 ,   6.00000000 ,   2.00000000 ,   4.78833175 ,   4.78833175 ,   67.5025130
0000000312,   3.00000000 ,   6.00000000 ,   2.00000000 ,   4.78839637 ,   4.78839637 ,   67.4993337
0000000313,   4.00000000 ,   6.00000000 ,   2.00000000 ,   4.78843991 ,   4.78843991 ,   67.4978000
0000000314,   5.00000000 ,   6.00000000 ,   2.00000000 ,   4.78845497 ,   4.78845497 ,   67.4973664
0000000315,   6.00000000 ,   6.00000000 ,   2.00000000 ,   4.78843991 ,   4.78843991 ,   67.4978000
0000000316,   7.00000000 ,   6.00000000 ,   2.00000000 ,   4.78839637 ,   4.78839637 ,   67.4993337
0000000317,   8.00000000 ,   6.00000000 ,   2.00000000 ,   4.78833175 ,   4.78833175 ,   67.5025130
0000000318,   9.00000000 ,   6.00000000 ,   2.00000000 ,   4.78826574 ,   4.78826574 ,   67.5073332
0000000319,   10.0000000 ,   6.00000000 ,   2.00000000 ,   4.78823372 ,   4.78823372 ,   67.5109757
0000000320,   0.00000000 ,   7.00000000 ,   2.00000000 ,   4.59040393 ,   4.59040393 ,   67.6444713
0000000321,   1.00000000 ,   7.00000000 ,   2.00000000 ,   4.59047673 ,   4.59047673 ,   67.6257419
0000000322,   2.00000000 ,   7.00000000 ,   2.00000000 ,   4.59060304 ,   4.59060304 ,   67.6063606
0000000323,   3.00000000 ,   7.00000000 ,   2.00000000 ,   4.59071203 ,   4.59071203 ,   67.5955213
0000000324,   4.00000000 ,   7.00000000 ,   2.00000000 ,   4.59077926 ,   4.59077926 ,   67.5908808
0000000325,   5.00000000 ,   7.00000000 ,   2.00000000 ,   4.59080148 ,   4.59080148 ,   67.5896547
0000000326,   6.00000000 ,   7.00000000 ,   2.00000000 ,   4.59077926 ,   4.59077926 ,   67.5908808
0000000327,   7.00000000 ,   7.00000000 ,   2.00000000 ,   4.59071203 ,   4.59071203 ,   67.5955213
0000000328,   8.00000000 ,   7.00000000 ,   2.00000000 ,   4.59060304 ,   4.59060304 ,   67.6063606
0000000329,   9.00000000 ,   7.00000000 ,   2.00000000 ,   4.59047673 ,   4.59047673 ,   67.6257419
0000000330,   10.0000000 ,   7.00000000 ,   2.00000000 ,   4.59040393 ,   4.59040393 ,   67.6444713
0000000331,   0.00000000 ,   8.00000000 ,   2.00000000 ,   4.39276203 ,   4.39276203 ,   67.9163953
0000000332,   1.00000000 ,   8.00000000 ,   2.00000000 ,   4.39293069 ,   4.39293069 ,   67.8154786
0000000333,   2.00000000 ,   8.00000000 ,   2.00000000 ,   4.39315462 ,   4.39315462 ,   67.7408081
0000000334,   3.00000000 ,   8.00000000 ,   2.00000000 ,   4.39331632 ,   4.39331632 ,   67.7069709
0000000335,   4.00000000 ,   8.00000000 ,   2.00000000 ,   4.39340480 ,   4.39340480 ,   67.6944324
0000000336,   5.00000000 ,   8.00000000 ,   2.00000000 ,   4.39343231 ,   4.39343231 ,   67.6913753
0000000337,   6.00000000 ,   8.00000000 ,   2.00000000 ,   4.39340480 ,   4.39340480 ,   67.6944324
0000000338,   7.00000000 ,   8.00000000 ,   2.00000000 ,   4.39331632 ,   4.39331632 ,   67.7069709
0000000339,   8.00000000 ,   8.00000000 ,   2.00000000 ,   4.39315462 ,   4.39315462 ,   67.7408081
0000000340,   9.00000000 ,   8.00000000 ,   2.00000000 ,   4.39293069 ,   4.39293069 ,   67.8154786
0000000341,   10.0000000 ,   8.00000000 ,   2.00000000 ,   4.39276203 ,   4.39276203 ,   67.9163953
0000000342,   0.00000000 ,   9.00000000 ,   2.00000000 ,   4.19550953 ,   4.19550953 ,   68.8306474
0000000343,   1.00000000 ,   9.00000000 ,   2.00000000 ,   4.19584567 ,   4.19584567 ,   68.2619906
0000000344,   2.00000000 ,   9.00000000 ,   2.00000000 ,   4.19614772 ,   4.19614772 ,   68.0009784
0000000345,   3.00000000 ,   9.00000000 ,   2.00000000 ,   4.19631882 ,   4.19631882 ,   67.9109916
0000000346,   4.00000000 ,   9.00000000 ,   2.00000000 ,   4.19639890 ,   4.19639890 ,   67.8828839
0000000347,   5.00000000 ,   9.00000000 ,   2.00000000 ,   4.19642191 ,   4.19642191 ,   67.8766179
0000000348,   6.00000000 ,   9.00000000 ,   2.00000000 ,   4.19639890 ,   4.19639890 ,   67.8828839
0000000349,   7.00000000 ,   9.00000000 ,   2.00000000 ,   4.19631882 ,   4.19631882 ,   67.9109916
0000000350,   8.00000000 ,   9.00000000 ,   2.00000000 ,   4.19614772 ,   4.19614772 ,   68.0009784
0000000351,   9.00000000 ,   9.00000000 ,   2.00000000 ,   4.19584567 ,   4.19584567 ,   68.2619906
0000000352,   10.0000000 ,   9.00000000 ,   2.00000000 ,   4.19550953 ,   4.19550953 ,   68.8306474
0000000353,   0.00000000 ,   10.0000000 ,   2.00000000 ,   4.00000000 ,   4.00000000 ,   72.4163318
0000000354,   1.00000000 ,   10.0000000 ,   2.00000000 ,   4.00000000 ,   4.00000000 ,   69.0832284
0000000355,   2.00000000 ,   10.0000000 ,   2.00000000 ,   4.00000000 ,   4.00000000 ,   68.3908459
0000000356,   3.00000000 ,   10.0000000 ,   2.00000000 ,   4.00000000 ,   4.00000000 ,   68.2248853
0000000357,   4.00000000 ,   10.0000000 ,   2.00000000 ,   4.00000000 ,   4.00000000 ,   68.1815186
0000000358,   5.00000000 ,   10.0000000 ,   2.00000000 ,   4.00000000 ,   4.00000000 ,   68.1725601
0000000359,   6.00000000 ,   10.0000000 ,   2.00000000 ,   4.00000000 ,   4.00000000 ,   68.1815186
0000000360,   7.00000000 ,   10.0000000 ,   2.00000000 ,   4.00000000 ,   4.00000000 ,   68.2248853
0000000361,   8.00000000 ,   10.0000000 ,   2.00000000 ,   4.00000000 ,   4.00000000 ,   68.3908459
0000000362,   9.00000000 ,   10.0000000 ,   2.00000000 ,   4.00000000 ,   4.00000000 ,   69.0832284
0000000363,   10.0000000 ,   10.0000000 ,   2.00000000 ,   4.00000000 ,   4.00000000 ,   72.4163318
0000000364,   0.00000000 ,   0.00000000 ,   3.00000000 ,   6.00000000 ,   6.00000000 ,   61.4230499
0000000365,   1.00000000 ,   0.00000000 ,   3.00000000 ,   6.00000000 ,   6.00000000 ,   61.4230517
0000000366,   2.00000000 ,   0.00000000 ,   3.00000000 ,   6.00000000 ,   6.00000000 ,   61.4230565
0000000367,   3.00000000 ,   0.00000000 ,   3.00000000 ,   6.00000000 ,   6.00000000 ,   61.4230627
0000000368,   4.00000000 ,   0.00000000 ,   3.00000000 ,   6.00000000 ,   6.00000000 ,   61.4230677
0000000369,   5.00000000 ,   0.00000000 ,   3.00000000 ,   6.00000000 ,   6.00000000 ,   61.4230697
0000000370,   6.00000000 ,   0.00000000 ,   3.00000000 ,   6.00000000 ,   6.00000000 ,   61.4230677
0000000371,   7.00000000 ,   0.00000000 ,   3.00000000 ,   6.00000000 ,   6.00000000 ,   61.4230627
0000000372,   8.00000000 ,   0.00000000 ,   3.00000000 ,   6.00000000 ,   6.00000000 ,   61.4230565
0000000373,   9.00000000 ,   0.00000000 ,   3.00000000 ,   6.00000000 ,   6.00000000 ,   61.4230517
0000000374,   10.0000000 ,   0.00000000 ,   3.00000000 ,   6.00000000 ,   6.00000000 ,   61.4230499
0000000375,   0.00000000 ,   1.00000000 ,   3.00000000 ,   5.79101584 ,   5.79101584 ,   62.2349422
0000000376,   1.00000000 ,   1.00000000 ,   3.00000000 ,   5.79101644 ,   5.79101644 ,   62.2349423
0000000377,   2.00000000 ,   1.00000000 ,   3.00000000 ,   5.79101799 ,   5.79101799 ,   62.2349431
0000000378,   3.00000000 ,   1.00000000 ,   3.00000000 ,   5.79101987 ,   5.79101987 ,   62.2349450
0000000379,   4.00000000 ,   1.00000000 ,   3.00000000 ,   5.79102136 ,   5.79102136 ,   62.2349470
0000000380,   5.00000000 ,   1.00000000 ,   3.00000000 ,   5.79102192 ,   5.79102192 ,   62.2349479
0000000381,   6.00000000 ,   1.00000000 ,   3.00000000 ,   5.79102136 ,   5.79102136 ,   62.2349470
0000000382,   7.00000000 ,   1.00000000 ,   3.00000000 ,   5.79101987 ,   5.79101987 ,   62.2349450
0000000383,   8.00000000 ,   1.00000000 ,   3.00000000 ,   5.79101799 ,   5.79101799 ,   62.2349431
0000000384,   9.00000000 ,   1.00000000 ,   3.00000000 ,   5.79101644 ,   5.79101644 ,   62.2349423
0000000385,   10.0000000 ,   1.00000000 ,   3.00000000 ,   5.79101584 ,   5.79101584 ,   62.2349422
0000000386,   0.00000000 ,   2.00000000 ,   3.00000000 ,   5.58543430 ,   5.58543430 ,   62.8782307
0000000387,   1.00000000 ,   2.00000000 ,   3.00000000 ,   5.58543573 ,   5.58543573 ,   62.8782244
0000000388,   2.00000000 ,   2.00000000 ,   3.00000000 ,   5.58543939 ,   5.58543939 ,   62.8782111
0000000389,   3.00000000 ,   2.00000000 ,   3.00000000 ,   5.58544379 ,   5.58544379 ,   62.8781987
0000000390,   4.00000000 ,   2.00000000 ,   3.00000000 ,   5.58544725 ,   5.58544725 ,   62.8781910
0000000391,   5.00000000 ,   2.00000000 ,   3.00000000 ,   5.58544856 ,   5.58544856 ,   62.8781886
0000000392,   6.00000000 ,   2.00000000 ,   3.00000000 ,   5.58544725 ,   5.58544725 ,   62.8781910
0000000393,   7.00000000 ,   2.00000000 ,   3.00000000 ,   5.58544379 ,   5.58544379 ,   62.8781987
0000000394,   8.00000000 ,   2.00000000 ,   3.00000000 ,   5.58543939 ,   5.58543939 ,   62.8782111
0000000395,   9.00000000 ,   2.00000000 ,   3.00000000 ,   5.58543573 ,   5.58543573 ,   62.8782244
0000000396,   10.0000000 ,   2.00000000 ,   3.00000000 ,   5.58543430 ,   5.58543430 ,   62.8782307
0000000397,   0.00000000 ,   3.00000000 ,   3.00000000 ,   5.38259791 ,   5.38259791 ,   63.3298086
0000000398,   1.00000000 ,   3.00000000 ,   3.00000000 ,   5.38260072 ,   5.38260072 ,   63.3297775
0000000399,   2.00000000 ,   3.00000000 ,   3.00000000 ,   5.38260785 ,   5.38260785 ,   63.3297124
0000000400,   3.00000000 ,   3.00000000 ,   3.00000000 ,   5.38261629 ,   5.38261629 ,   63.3296512
0000000401,   4.00000000 ,   3.00000000 ,   3.00000000 ,   5.38262284 ,   5.38262284 ,   63.3296125
0000000402,   5.00000000 ,   3.00000000 ,   3.00000000 ,   5.38262529 ,   5.38262529 ,   63.3295997
0000000403,   6.00000000 ,   3.00000000 ,   3.00000000 ,   5.38262284 ,   5.38262284 ,   63.3296125
0000000404,   7.00000000 ,   3.00000000 ,   3.00000000 ,   5.38261629 ,   5.38261629 ,   63.3296512
0000000405,   8.00000000 ,   3.00000000 ,   3.00000000 ,   5.38260785 ,   5.38260785 ,   63.3297124
0000000406,   9.00000000 ,   3.00000000 ,   3.00000000 ,   5.38260072 ,   5.38260072 ,   63.3297775
0000000407,   10.0000000 ,   3.00000000 ,   3.00000000 ,   5.38259791 ,   5.38259791 ,   63.3298086
0000000408,   0.00000000 ,   4.00000000 ,   3.00000000 ,   5.18177753 ,   5.18177753 ,   63.6193454
0000000409,   1.00000000 ,   4.00000000 ,   3.00000000 ,   5.18178289 ,   5.18178289 ,   63.6192136
0000000410,   2.00000000 ,   4.00000000 ,   3.00000000 ,   5.18179616 ,   5.18179616 ,   63.6189557
0000000411,   3.00000000 ,   4.00000000 ,   3.00000000 ,   5.18181143 ,   5.18181143 ,   63.6187265
0000000412,   4.00000000 ,   4.00000000 ,   3.00000000 ,   5.18182305 ,   5.18182305 ,   63.6185875
0000000413,   5.00000000 ,   4.00000000 ,   3.00000000 ,   5.18182733 ,   5.18182733 ,   63.6185427
0000000414,   6.00000000 ,   4.00000000 ,   3.00000000 ,   5.18182305 ,   5.18182305 ,   63.6185875
0000000415,   7.00000000 ,   4.00000000 ,   3.00000000 ,   5.18181143 ,   5.18181143 ,   63.6187265
0000000416,   8.00000000 ,   4.00000000 ,   3.00000000 ,   5.18179616 ,   5.18179616 ,   63.6189557
0000000417,   9.00000000 ,   4.00000000 ,   3.00000000 ,   5.18178289 ,   5.18178289 ,   63.6192136
0000000418,   10.0000000 ,   4.00000000 ,   3.00000000 ,   5.18177753 ,   5.18177753 ,   63.6193454
0000000419,   0.00000000 ,   5.00000000 ,   3.00000000 ,   4.98237068 ,   4.98237068 ,   63.7945908
0000000420,   1.00000000 ,   5.00000000 ,   3.00000000 ,   4.98238094 ,   4.98238094 ,   63.7940407
0000000421,   2.00000000 ,   5.00000000 ,   3.00000000 ,   4.98240528 ,   4.98240528 ,   63.7930684
0000000422,   3.00000000 ,   5.00000000 ,   3.00000000 ,   4.98243212 ,   4.98243212 ,   63.7922729
0000000423,   4.00000000 ,   5.00000000 ,   3.00000000 ,   4.98245185 ,   4.98245185 ,   63.7918206
0000000424,   5.00000000 ,   5.00000000 ,   3.00000000 ,   4.98245900 ,   4.98245900 ,   63.7916800
0000000425,   6.00000000 ,   5.00000000 ,   3.00000000 ,   4.98245185 ,   4.98245185 ,   63.7918206
0000000426,   7.00000000 ,   5.00000000 ,   3.00000000 ,   4.98243212 ,   4.98243212 ,   63.7922729
0000000427,   8.00000000 ,   5.00000000 ,   3.00000000 ,   4.98240528 ,   4.98240528 ,   63.7930684
0000000428,   9.00000000 ,   5.00000000 ,   3.00000000 ,   4.98238094 ,   4.98238094 ,   63.7940407
0000000429,   10.0000000 ,   5.00000000 ,   3.00000000 ,   4.98237068 ,   4.98237068 ,   63.7945908
0000000430,   0.00000000 ,   6.00000000 ,   3.00000000 ,   4.78395964 ,   4.78395964 ,   63.9057129
0000000431,   1.00000000 ,   6.00000000 ,   3.00000000 ,   4.78397959 ,   4.78397959 ,   63.9033916
0000000432,   2.00000000 ,   6.00000000 ,   3.00000000 ,   4.78402363 ,   4.78402363 ,   63.8998223
0000000433,   3.00000000 ,   6.00000000 ,   3.00000000 ,   4.78406911 ,   4.78406911 ,   63.8971955
0000000434,   4.00000000 ,   6.00000000 ,   3.00000000 ,   4.78410095 ,   4.78410095 ,   63.8958178
0000000435,   5.00000000 ,   6.00000000 ,   3.00000000 ,   4.78411219 ,   4.78411219 ,   63.8954089
0000000436,   6.00000000 ,   6.00000000 ,   3.00000000 ,   4.78410095 ,   4.78410095 ,   63.8958178
0000000437,   7.00000000 ,   6.00000000 ,   3.00000000 ,   4.78406911 ,   4.78406911 ,   63.8971955
0000000438,   8.00000000 ,   6.00000000 ,   3.00000000 ,   4.78402363 ,   4.78402363 ,   63.8998223
0000000439,   9.00000000 ,   6.00000000 ,   3.00000000 ,   4.78397959 ,   4.78397959 ,   63.9033916
0000000440,   10.0000000 ,   6.00000000 ,   3.00000000 ,   4.78395964 ,   4.78395964 ,   63.9057129
0000000441,   0.00000000 ,   7.00000000 ,   3.00000000 ,   4.58631043 ,   4.58631043 ,   64.0134363
0000000442,   1.00000000 ,   7.00000000 ,   3.00000000 ,   4.58634979 ,   4.58634979 ,   64.0035224
0000000443,   2.00000000 ,   7.00000000 ,   3.00000000 ,   4.58642679 ,   4.58642679 ,   63.9908650
0000000444,   3.00000000 ,   7.00000000 ,   3.00000000 ,   4.58649904 ,   4.58649904 ,   63.9826936
0000000445,   4.00000000 ,   7.00000000 ,   3.00000000 ,   4.58654624 ,   4.58654624 ,   63.9788031
0000000446,   5.00000000 ,   7.00000000 ,   3.00000000 ,   4.58656229 ,   4.58656229 ,   63.9777101
0000000447,   6.00000000 ,   7.00000000 ,   3.00000000 ,   4.58654624 ,   4.58654624 ,   63.9788031
0000000448,   7.00000000 ,   7.00000000 ,   3.00000000 ,   4.58649904 ,   4.58649904 ,   63.9826936
0000000449,   8.00000000 ,   7.00000000 ,   3.00000000 ,   4.58642679 ,   4.58642679 ,   63.9908650
0000000450,   9.00000000 ,   7.00000000 ,   3.00000000 ,   4.58634979 ,   4.58634979 ,   64.0035224
0000000451,   10.0000000 ,   7.00000000 ,   3.00000000 ,   4.58631043 ,   4.58631043 ,   64.0134363
0000000452,   0.00000000 ,   8.00000000 ,   3.00000000 ,   4.38938918 ,   4.38938918 ,   64.2384143
0000000453,   1.00000000 ,   8.00000000 ,   3.00000000 ,   4.38946476 ,   4.38946476 ,   64.1961910
0000000454,   2.00000000 ,   8.00000000 ,   3.00000000 ,   4.38958723 ,   4.38958723 ,   64.1538970
0000000455,   3.00000000 ,   8.00000000 ,   3.00000000 ,   4.38968765 ,   4.38968765 ,   64.1305907
0000000456,   4.00000000 ,   8.00000000 ,   3.00000000 ,   4.38974739 ,   4.38974739 ,   64.1206657
0000000457,   5.00000000 ,   8.00000000 ,   3.00000000 ,   4.38976675 ,   4.38976675 ,   64.1180454
0000000458,   6.00000000 ,   8.00000000 ,   3.00000000 ,   4.38974739 ,   4.38974739 ,   64.1206657
0000000459,   7.00000000 ,   8.00000000 ,   3.00000000 ,   4.38968765 ,   4.38968765 ,   64.1305907
0000000460,   8.00000000 ,   8.00000000 ,   3.00000000 ,   4.38958723 ,   4.38958723 ,   64.1538970
0000000461,   9.00000000 ,   8.00000000 ,   3.00000000 ,   4.38946476 ,   4.38946476 ,   64.1961910
0000000462,   10.0000000 ,   8.00000000 ,   3.00000000 ,   4.38938918 ,   4.38938918 ,   64.2384143
0000000463,   0.00000000 ,   9.00000000 ,   3.00000000 ,   4.19351355 ,   4.19351355 ,   64.9334958
0000000464,   1.00000000 ,   9.00000000 ,   3.00000000 ,   4.19363198 ,   4.19363198 ,   64.7612984
0000000465,   2.00000000 ,   9.00000000 ,   3.00000000 ,   4.19377772 ,   4.19377772 ,   64.6346454
0000000466,   3.00000000 ,   9.00000000 ,   3.00000000 ,   4.19387757 ,   4.19387757 ,   64.5764964
0000000467,   4.00000000 ,   9.00000000 ,   3.00000000 ,   4.19393023 ,   4.19393023 ,   64.5544918
0000000468,   5.00000000 ,   9.00000000 ,   3.00000000 ,   4.19394629 ,   4.19394629 ,   64.5490362
0000000469,   6.00000000 ,   9.00000000 ,   3.00000000 ,   4.19393023 ,   4.19393023 ,   64.5544918
0000000470,   7.00000000 ,   9.00000000 ,   3.00000000 ,   4.19387757 ,   4.19387757 ,   64.5764964
0000000471,   8.00000000 ,   9.00000000 ,   3.00000000 ,   4.19377772 ,   4.19377772 ,   64.6346454
0000000472,   9.00000000 ,   9.00000000 ,   3.00000000 ,   4.19363198 ,   4.19363198 ,   64.7612984
0000000473,   10.0000000 ,   9.00000000 ,   3.00000000 ,   4.19351355 ,   4.19351355 ,   64.9334958
0000000474,   0.00000000 ,   10.0000000 ,   3.00000000 ,   4.00000000 ,   4.00000000 ,   67.2775071
0000000475,   1.00000000 ,   10.0000000 ,   3.00000000 ,   4.00000000 ,   4.00000000 ,   66.6807683
0000000476,   2.00000000 ,   10.0000000 ,   3.00000000 ,   4.00000000 ,   4.00000000 ,   66.3749530
0000000477,   3.00000000 ,   10.0000000 ,   3.00000000 ,   4.00000000 ,   4.00000000 ,   66.2563265
0000000478,   4.00000000 ,   10.0000000 ,   3.00000000 ,   4.00000000 ,   4.00000000 ,   66.2152038
0000000479,   5.00000000 ,   10.0000000 ,   3.00000000 ,   4.00000000 ,   4.00000000 ,   66.2054141
0000000480,   6.00000000 ,   10.0000000 ,   3.00000000 ,   4.00000000 ,   4.00000000 ,   66.2152038
0000000481,   7.00000000 ,   10.0000000 ,   3.00000000 ,   4.00000000 ,   4.00000000 ,   66.2563265
0000000482,   8.00000000 ,   10.0000000 ,   3.00000000 ,   4.00000000 ,   4.00000000 ,   66.3749530
0000000483,   9.00000000 ,   10.0000000 ,   3.00000000 ,   4.00000000 ,   4.00000000 ,   66.6807683
0000000484,   10.0000000 ,   10.0000000 ,   3.00000000 ,   4.00000000 ,   4.00000000 ,   67.2775071
0000000485,   0.00000000 ,   0.00000000 ,   4.00000000 ,   6.00000000 ,   6.00000000 ,   60.9389975
0000000486,   1.00000000 ,   0.00000000 ,   4.00000000 ,   6.00000000 ,   6.00000000 ,   60.9389971
0000000487,   2.00000000 ,   0.00000000 ,   4.00000000 ,   6.00000000 ,   6.00000000 ,   60.9389963
0000000488,   3.00000000 ,   0.00000000 ,   4.00000000 ,   6.00000000 ,   6.00000000 ,   60.9389957
0000000489,   4.00000000 ,   0.00000000 ,   4.00000000 ,   6.00000000 ,   6.00000000 ,   60.9389955
0000000490,   5.00000000 ,   0.00000000 ,   4.00000000 ,   6.00000000 ,   6.00000000 ,   60.9389954
0000000491,   6.00000000 ,   0.00000000 ,   4.00000000 ,   6.00000000 ,   6.00000000 ,   60.9389955
0000000492,   7.00000000 ,   0.00000000 ,   4.00000000 ,   6.00000000 ,   6.00000000 ,   60.9389957
0000000493,   8.00000000 ,   0.00000000 ,   4.00000000 ,   6.00000000 ,   6.00000000 ,   60.9389963
0000000494,   9.00000000 ,   0.00000000 ,   4.00000000 ,   6.00000000 ,   6.00000000 ,   60.9389971
0000000495,   10.0000000 ,   0.00000000 ,   4.00000000 ,   6.00000000 ,   6.00000000 ,   60.9389975
0000000496,   0.00000000 ,   1.00000000 ,   4.00000000 ,   6.07473770 ,   6.07473770 ,   61.1443755
0000000497,   1.00000000 ,   1.00000000 ,   4.00000000 ,   6.07473639 ,   6.07473639 ,   61.1443738
0000000498,   2.00000000 ,   1.00000000 ,   4.00000000 ,   6.07473330 ,   6.07473330 ,   61.1443698
0000000499,   3.00000000 ,   1.00000000 ,   4.00000000 ,   6.07473003 ,   6.07473003 ,   61.1443658
0000000500,   4.00000000 ,   1.00000000 ,   4.00000000 ,   6.07472776 ,   6.07472776 ,   61.1443632
0000000501,   5.00000000 ,   1.00000000 ,   4.00000000 ,   6.07472697 ,   6.07472697 ,   61.1443622
0000000502,   6.00000000 ,   1.00000000 ,   4.00000000 ,   6.07472776 ,   6.07472776 ,   61.1443632
0000000503,   7.00000000 ,   1.00000000 ,   4.00000000 ,   6.07473003 ,   6.07473003 ,   61.1443658
0000000504,   8.00000000 ,   1.00000000 ,   4.00000000 ,   6.07473330 ,   6.07473330 ,   61.1443698
0000000505,   9.00000000 ,   1.00000000 ,   4.00000000 ,   6.07473639 ,   6.07473639 ,   61.1443738
0000000506,   10.0000000 ,   1.00000000 ,   4.00000000 ,   6.07473770 ,   6.07473770 ,   61.1443755
0000000507,   0.00000000 ,   2.00000000 ,   4.00000000 ,   5.99315350 ,   5.99315350 ,   61.3908409
0000000508,   1.00000000 ,   2.00000000 ,   4.00000000 ,   5.99314806 ,   5.99314806 ,   61.3908331
0000000509,   2.00000000 ,   2.00000000 ,   4.00000000 ,   5.99313530 ,   5.99313530 ,   61.3908151
0000000510,   3.00000000 ,   2.00000000 ,   4.00000000 ,   5.99312185 ,   5.99312185 ,   61.3907965
0000000511,   4.00000000 ,   2.00000000 ,   4.00000000 ,   5.99311250 ,   5.99311250 ,   61.3907838
0000000512,   5.00000000 ,   2.00000000 ,   4.00000000 ,   5.99310924 ,   5.99310924 ,   61.3907795
0000000513,   6.00000000 ,   2.00000000 ,   4.00000000 ,   5.99311250 ,   5.99311250 ,   61.3907838
0000000514,   7.00000000 ,   2.00000000 ,   4.00000000 ,   5.99312185 ,   5.99312185 ,   61.3907965
0000000515,   8.00000000 ,   2.00000000 ,   4.00000000 ,   5.99313530 ,   5.99313530 ,   61.3908151
0000000516,   9.00000000 ,   2.00000000 ,   4.00000000 ,   5.99314806 ,   5.99314806 ,   61.3908331
0000000517,   10.0000000 ,   2.00000000 ,   4.00000000 ,   5.99315350 ,   5.99315350 ,   61.3908409
0000000518,   0.00000000 ,   3.00000000 ,   4.00000000 ,   5.88156327 ,   5.88156327 ,   61.5787615
0000000519,   1.00000000 ,   3.00000000 ,   4.00000000 ,   5.88154374 ,   5.88154374 ,   61.5787315
0000000520,   2.00000000 ,   3.00000000 ,   4.00000000 ,   5.88149895 ,   5.88149895 ,   61.5786649
0000000521,   3.00000000 ,   3.00000000 ,   4.00000000 ,   5.88145272 ,   5.88145272 ,   61.5785984
0000000522,   4.00000000 ,   3.00000000 ,   4.00000000 ,   5.88142111 ,   5.88142111 ,   61.5785540
0000000523,   5.00000000 ,   3.00000000 ,   4.00000000 ,   5.88141020 ,   5.88141020 ,   61.5785389
0000000524,   6.00000000 ,   3.00000000 ,   4.00000000 ,   5.88142111 ,   5.88142111 ,   61.5785540
0000000525,   7.00000000 ,   3.00000000 ,   4.00000000 ,   5.88145272 ,   5.88145272 ,   61.5785984
0000000526,   8.00000000 ,   3.00000000 ,   4.00000000 ,   5.88149895 ,   5.88149895 ,   61.5786649
0000000527,   9.00000000 ,   3.00000000 ,   4.00000000 ,   5.88154374 ,   5.88154374 ,   61.5787315
0000000528,   10.0000000 ,   3.00000000 ,   4.00000000 ,   5.88156327 ,   5.88156327 ,   61.5787615
0000000529,   0.00000000 ,   4.00000000 ,   4.00000000 ,   5.75218603 ,   5.75218603 ,   61.6964124
0000000530,   1.00000000 ,   4.00000000 ,   4.00000000 ,   5.75212074 ,   5.75212074 ,   61.6963027
0000000531,   2.00000000 ,   4.00000000 ,   4.00000000 ,   5.75197588 ,   5.75197588 ,   61.6960722
0000000532,   3.00000000 ,   4.00000000 ,   4.00000000 ,   5.75183145 ,   5.75183145 ,   61.6958535
0000000533,   4.00000000 ,   4.00000000 ,   4.00000000 ,   5.75173546 ,   5.75173546 ,   61.6957136
0000000534,   5.00000000 ,   4.00000000 ,   4.00000000 ,   5.75170286 ,   5.75170286 ,   61.6956671
0000000535,   6.00000000 ,   4.00000000 ,   4.00000000 ,   5.75173546 ,   5.75173546 ,   61.6957136
0000000536,   7.00000000 ,   4.00000000 ,   4.00000000 ,   5.75183145 ,   5.75183145 ,   61.6958535
0000000537,   8.00000000 ,   4.00000000 ,   4.00000000 ,   5.75197588 ,   5.75197588 ,   61.6960722
0000000538,   9.00000000 ,   4.00000000 ,   4.00000000 ,   5.75212074 ,   5.75212074 ,   61.6963027
0000000539,   10.0000000 ,   4.00000000 ,   4.00000000 ,   5.75218603 ,   5.75218603 ,   61.6964124
0000000540,   0.00000000 ,   5.00000000 ,   4.00000000 ,   5.60617330 ,   5.60617330 ,   61.7605901
0000000541,   1.00000000 ,   5.00000000 ,   4.00000000 ,   5.60596580 ,   5.60596580 ,   61.7601959
0000000542,   2.00000000 ,   5.00000000 ,   4.00000000 ,   5.60552633 ,   5.60552633 ,   61.7594263
0000000543,   3.00000000 ,   5.00000000 ,   4.00000000 ,   5.60510767 ,   5.60510767 ,   61.7587430
0000000544,   4.00000000 ,   5.00000000 ,   4.00000000 ,   5.60483964 ,   5.60483964 ,   61.7583287
0000000545,   5.00000000 ,   5.00000000 ,   4.00000000 ,   5.60475056 ,   5.60475056 ,   61.7581952
0000000546,   6.00000000 ,   5.00000000 ,   4.00000000 ,   5.60483964 ,   5.60483964 ,   61.7583287
0000000547,   7.00000000 ,   5.00000000 ,   4.00000000 ,   5.60510767 ,   5.60510767 ,   61.7587430
0000000548,   8.00000000 ,   5.00000000 ,   4.00000000 ,   5.60552633 ,   5.60552633 ,   61.7594263
0000000549,   9.00000000 ,   5.00000000 ,   4.00000000 ,   5.60596580 ,   5.60596580 ,   61.7601959
0000000550,   10.0000000 ,   5.00000000 ,   4.00000000 ,   5.60617330 ,   5.60617330 ,   61.7605901
0000000551,   0.00000000 ,   6.00000000 ,   4.00000000 ,   5.44885948 ,   5.44885948 ,   61.7973690
0000000552,   1.00000000 ,   6.00000000 ,   4.00000000 ,   5.44823381 ,   5.44823381 ,   61.7959692
0000000553,   2.00000000 ,   6.00000000 ,   4.00000000 ,   5.44698887 ,   5.44698887 ,   61.7934954
0000000554,   3.00000000 ,   6.00000000 ,   4.00000000 ,   5.44586820 ,   5.44586820 ,   61.7914726
0000000555,   4.00000000 ,   6.00000000 ,   4.00000000 ,   5.44518277 ,   5.44518277 ,   61.7903233
0000000556,   5.00000000 ,   6.00000000 ,   4.00000000 ,   5.44496084 ,   5.44496084 ,   61.7899662
0000000557,   6.00000000 ,   6.00000000 ,   4.00000000 ,   5.44518277 ,   5.44518277 ,   61.7903233
0000000558,   7.00000000 ,   6.00000000 ,   4.00000000 ,   5.44586820 ,   5.44586820 ,   61.7914726
0000000559,   8.00000000 ,   6.00000000 ,   4.00000000 ,   5.44698887 ,   5.44698887 ,   61.7934954
0000000560,   9.00000000 ,   6.00000000 ,   4.00000000 ,   5.44823381 ,   5.44823381 ,   61.7959692
0000000561,   10.0000000 ,   6.00000000 ,   4.00000000 ,   5.44885948 ,   5.44885948 ,   61.7973690
0000000562,   0.00000000 ,   7.00000000 ,   4.00000000 ,   5.28651912 ,   5.28651912 ,   61.8423786
0000000563,   1.00000000 ,   7.00000000 ,   4.00000000 ,   5.28476466 ,   5.28476466 ,   61.8375113
0000000564,   2.00000000 ,   7.00000000 ,   4.00000000 ,   5.28154920 ,   5.28154920 ,   61.8299769
0000000565,   3.00000000 ,   7.00000000 ,   4.00000000 ,   5.27884548 ,   5.27884548 ,   61.8244025
0000000566,   4.00000000 ,   7.00000000 ,   4.00000000 ,   5.27727756 ,   5.27727756 ,   61.8214671
0000000567,   5.00000000 ,   7.00000000 ,   4.00000000 ,   5.27678506 ,   5.27678506 ,   61.8205938
0000000568,   6.00000000 ,   7.00000000 ,   4.00000000 ,   5.27727756 ,   5.27727756 ,   61.8214671
0000000569,   7.00000000 ,   7.00000000 ,   4.00000000 ,   5.27884548 ,   5.27884548 ,   61.8244025
0000000570,   8.00000000 ,   7.00000000 ,   4.00000000 ,   5.28154920 ,   5.28154920 ,   61.8299769
0000000571,   9.00000000 ,   7.00000000 ,   4.00000000 ,   5.28476466 ,   5.28476466 ,   61.8375113
0000000572,   10.0000000 ,   7.00000000 ,   4.00000000 ,   5.28651912 ,   5.28651912 ,   61.8423786
0000000573,   0.00000000 ,   8.00000000 ,   4.00000000 ,   5.11156605 ,   5.11156605 ,   61.9552006
0000000574,   1.00000000 ,   8.00000000 ,   4.00000000 ,   5.10723051 ,   5.10723051 ,   61.9390458
0000000575,   2.00000000 ,   8.00000000 ,   4.00000000 ,   5.10008311 ,   5.10008311 ,   61.9179812
0000000576,   3.00000000 ,   8.00000000 ,   4.00000000 ,   5.09453227 ,   5.09453227 ,   61.9041376
0000000577,   4.00000000 ,   8.00000000 ,   4.00000000 ,   5.09149925 ,   5.09149925 ,   61.8974487
0000000578,   5.00000000 ,   8.00000000 ,   4.00000000 ,   5.09057786 ,   5.09057786 ,   61.8955526
0000000579,   6.00000000 ,   8.00000000 ,   4.00000000 ,   5.09149925 ,   5.09149925 ,   61.8974487
0000000580,   7.00000000 ,   8.00000000 ,   4.00000000 ,   5.09453227 ,   5.09453227 ,   61.9041376
0000000581,   8.00000000 ,   8.00000000 ,   4.00000000 ,   5.10008311 ,   5.10008311 ,   61.9179812
0000000582,   9.00000000 ,   8.00000000 ,   4.00000000 ,   5.10723051 ,   5.10723051 ,   61.9390458
0000000583,   10.0000000 ,   8.00000000 ,   4.00000000 ,   5.11156605 ,   5.11156605 ,   61.9552006
0000000584,   0.00000000 ,   9.00000000 ,   4.00000000 ,   4.83709791 ,   4.83709791 ,   62.2344695
0000000585,   1.00000000 ,   9.00000000 ,   4.00000000 ,   4.82916887 ,   4.82916887 ,   62.1863039
0000000586,   2.00000000 ,   9.00000000 ,   4.00000000 ,   4.81771591 ,   4.81771591 ,   62.1355597
0000000587,   3.00000000 ,   9.00000000 ,   4.00000000 ,   4.80957392 ,   4.80957392 ,   62.1063623
0000000588,   4.00000000 ,   9.00000000 ,   4.00000000 ,   4.80539374 ,   4.80539374 ,   62.0934709
0000000589,   5.00000000 ,   9.00000000 ,   4.00000000 ,   4.80416632 ,   4.80416632 ,   62.0899908
0000000590,   6.00000000 ,   9.00000000 ,   4.00000000 ,   4.80539374 ,   4.80539374 ,   62.0934709
0000000591,   7.00000000 ,   9.00000000 ,   4.00000000 ,   4.80957392 ,   4.80957392 ,   62.1063623
0000000592,   8.00000000 ,   9.00000000 ,   4.00000000 ,   4.81771591 ,   4.81771591 ,   62.1355597
0000000593,   9.00000000 ,   9.00000000 ,   4.00000000 ,   4.82916887 ,   4.82916887 ,   62.1863039
0000000594,   10.0000000 ,   9.00000000 ,   4.00000000 ,   4.83709791 ,   4.83709791 ,   62.2344695
0000000595,   0.00000000 ,   10.0000000 ,   4.00000000 ,   4.00000000 ,   4.00000000 ,   62.7066724
0000000596,   1.00000000 ,   10.0000000 ,   4.00000000 ,   4.00000000 ,   4.00000000 ,   62.5983511
0000000597,   2.00000000 ,   10.0000000 ,   4.00000000 ,   4.00000000 ,   4.00000000 ,   62.5082413
0000000598,   3.00000000 ,   10.0000000 ,   4.00000000 ,   4.00000000 ,   4.00000000 ,   62.4624076
0000000599,   4.00000000 ,   10.0000000 ,   4.00000000 ,   4.00000000 ,   4.00000000 ,   62.4435839
0000000600,   5.00000000 ,   10.0000000 ,   4.00000000 ,   4.00000000 ,   4.00000000 ,   62.4386822
0000000601,   6.00000000 ,   10.0000000 ,   4.00000000 ,   4.00000000 ,   4.00000000 ,   62.4435839
0000000602,   7.00000000 ,   10.0000000 ,   4.00000000 ,   4.00000000 ,   4.00000000 ,   62.4624076
0000000603,   8.00000000 ,   10.0000000 ,   4.00000000 ,   4.00000000 ,   4.00000000 ,   62.5082413
0000000604,   9.00000000 ,   10.0000000 ,   4.00000000 ,   4.00000000 ,   4.00000000 ,   62.5983511
0000000605,   10.0000000 ,   10.0000000 ,   4.00000000 ,   4.00000000 ,   4.00000000 ,   62.7066724
0000000606,   0.00000000 ,   0.00000000 ,   5.00000000 ,   6.00000000 ,   6.00000000 ,   60.4671866
0000000607,   1.00000000 ,   0.00000000 ,   5.00000000 ,   6.00000000 ,   6.00000000 ,   60.4671859
0000000608,   2.00000000 ,   0.00000000 ,   5.00000000 ,   6.00000000 ,   6.00000000 ,   60.4671841
0000000609,   3.00000000 ,   0.00000000 ,   5.00000000 ,   6.00000000 ,   6.00000000 ,   60.4671821
0000000610,   4.00000000 ,   0.00000000 ,   5.00000000 ,   6.00000000 ,   6.00000000 ,   60.4671807
0000000611,   5.00000000 ,   0.00000000 ,   5.00000000 ,   6.00000000 ,   6.00000000 ,   60.4671802
0000000612,   6.00000000 ,   0.00000000 ,   5.00000000 ,   6.00000000 ,   6.00000000 ,   60.4671807
0000000613,   7.00000000 ,   0.00000000 ,   5.00000000 ,   6.00000000 ,   6.00000000 ,   60.4671821
0000000614,   8.00000000 ,   0.00000000 ,   5.00000000 ,   6.00000000 ,   6.00000000 ,   60.4671841
0000000615,   9.00000000 ,   0.00000000 ,   5.00000000 ,   6.00000000 ,   6.00000000 ,   60.4671859
0000000616,   10.0000000 ,   0.00000000 ,   5.00000000 ,   6.00000000 ,   6.00000000 ,   60.4671866
0000000617,   0.00000000 ,   1.00000000 ,   5.00000000 ,   6.01364998 ,   6.01364998 ,   60.5159780
0000000618,   1.00000000 ,   1.00000000 ,   5.00000000 ,   6.01364792 ,   6.01364792 ,   60.5159763
0000000619,   2.00000000 ,   1.00000000 ,   5.00000000 ,   6.01364290 ,   6.01364290 ,   60.5159723
0000000620,   3.00000000 ,   1.00000000 ,   5.00000000 ,   6.01363733 ,   6.01363733 ,   60.5159679
0000000621,   4.00000000 ,   1.00000000 ,   5.00000000 ,   6.01363327 ,   6.01363327 ,   60.5159647
0000000622,   5.00000000 ,   1.00000000 ,   5.00000000 ,   6.01363182 ,   6.01363182 ,   60.5159636
0000000623,   6.00000000 ,   1.00000000 ,   5.00000000 ,   6.01363327 ,   6.01363327 ,   60.5159647
0000000624,   7.00000000 ,   1.00000000 ,   5.00000000 ,   6.01363733 ,   6.01363733 ,   60.5159679
0000000625,   8.00000000 ,   1.00000000 ,   5.00000000 ,   6.01364290 ,   6.01364290 ,   60.5159723
0000000626,   9.00000000 ,   1.00000000 ,   5.00000000 ,   6.01364792 ,   6.01364792 ,   60.5159763
0000000627,   10.0000000 ,   1.00000000 ,   5.00000000 ,   6.01364998 ,   6.01364998 ,   60.5159780
0000000628,   0.00000000 ,   2.00000000 ,   5.00000000 ,   5.90886634 ,   5.90886634 ,   60.5823787
0000000629,   1.00000000 ,   2.00000000 ,   5.00000000 ,   5.90885901 ,   5.90885901 ,   60.5823728
0000000630,   2.00000000 ,   2.00000000 ,   5.00000000 ,   5.90884141 ,   5.90884141 ,   60.5823589
0000000631,   3.00000000 ,   2.00000000 ,   5.00000000 ,   5.90882220 ,   5.90882220 ,   60.5823439
0000000632,   4.00000000 ,   2.00000000 ,   5.00000000 ,   5.90880840 ,   5.90880840 ,   60.5823333
0000000633,   5.00000000 ,   2.00000000 ,   5.00000000 ,   5.90880350 ,   5.90880350 ,   60.5823296
0000000634,   6.00000000 ,   2.00000000 ,   5.00000000 ,   5.90880840 ,   5.90880840 ,   60.5823333
0000000635,   7.00000000 ,   2.00000000 ,   5.00000000 ,   5.90882220 ,   5.90882220 ,   60.5823439
0000000636,   8.00000000 ,   2.00000000 ,   5.00000000 ,   5.90884141 ,   5.90884141 ,   60.5823589
0000000637,   9.00000000 ,   2.00000000 ,   5.00000000 ,   5.90885901 ,   5.90885901 ,   60.5823728
0000000638,   10.0000000 ,   2.00000000 ,   5.00000000 ,   5.90886634 ,   5.90886634 ,   60.5823787
0000000639,   0.00000000 ,   3.00000000 ,   5.00000000 ,   5.78885203 ,   5.78885203 ,   60.6227436
0000000640,   1.00000000 ,   3.00000000 ,   5.00000000 ,   5.78882842 ,   5.78882842 ,   60.6227234
0000000641,   2.00000000 ,   3.00000000 ,   5.00000000 ,   5.78877285 ,   5.78877285 ,   60.6226770
0000000642,   3.00000000 ,   3.00000000 ,   5.00000000 ,   5.78871367 ,   5.78871367 ,   60.6226289
0000000643,   4.00000000 ,   3.00000000 ,   5.00000000 ,   5.78867202 ,   5.78867202 ,   60.6225958
0000000644,   5.00000000 ,   3.00000000 ,   5.00000000 ,   5.78865739 ,   5.78865739 ,   60.6225843
0000000645,   6.00000000 ,   3.00000000 ,   5.00000000 ,   5.78867202 ,   5.78867202 ,   60.6225958
0000000646,   7.00000000 ,   3.00000000 ,   5.00000000 ,   5.78871367 ,   5.78871367 ,   60.6226289
0000000647,   8.00000000 ,   3.00000000 ,   5.00000000 ,   5.78877285 ,   5.78877285 ,   60.6226770
0000000648,   9.00000000 ,   3.00000000 ,   5.00000000 ,   5.78882842 ,   5.78882842 ,   60.6227234
0000000649,   10.0000000 ,   3.00000000 ,   5.00000000 ,   5.78885203 ,   5.78885203 ,   60.6227436
0000000650,   0.00000000 ,   4.00000000 ,   5.00000000 ,   5.65746704 ,   5.65746704 ,   60.6275485
0000000651,   1.00000000 ,   4.00000000 ,   5.00000000 ,   5.65739476 ,   5.65739476 ,   60.6274818
0000000652,   2.00000000 ,   4.00000000 ,   5.00000000 ,   5.65722923 ,   5.65722923 ,   60.6273347
0000000653,   3.00000000 ,   4.00000000 ,   5.00000000 ,   5.65705837 ,   5.65705837 ,   60.6271882
0000000654,   4.00000000 ,   4.00000000 ,   5.00000000 ,   5.65694135 ,   5.65694135 ,   60.6270908
0000000655,   5.00000000 ,   4.00000000 ,   5.00000000 ,   5.65690089 ,   5.65690089 ,   60.6270577
0000000656,   6.00000000 ,   4.00000000 ,   5.00000000 ,   5.65694135 ,   5.65694135 ,   60.6270908
0000000657,   7.00000000 ,   4.00000000 ,   5.00000000 ,   5.65705837 ,   5.65705837 ,   60.6271882
0000000658,   8.00000000 ,   4.00000000 ,   5.00000000 ,   5.65722923 ,   5.65722923 ,   60.6273347
0000000659,   9.00000000 ,   4.00000000 ,   5.00000000 ,   5.65739476 ,   5.65739476 ,   60.6274818
0000000660,   10.0000000 ,   4.00000000 ,   5.00000000 ,   5.65746704 ,   5.65746704 ,   60.6275485
0000000661,   0.00000000 ,   5.00000000 ,   5.00000000 ,   5.51031651 ,   5.51031651 ,   60.6037744
0000000662,   1.00000000 ,   5.00000000 ,   5.00000000 ,   5.51010629 ,   5.51010629 ,   60.6035604
0000000663,   2.00000000 ,   5.00000000 ,   5.00000000 ,   5.50964172 ,   5.50964172 ,   60.6031125
0000000664,   3.00000000 ,   5.00000000 ,   5.00000000 ,   5.50918021 ,   5.50918021 ,   60.6026894
0000000665,   4.00000000 ,   5.00000000 ,   5.00000000 ,   5.50887428 ,   5.50887428 ,   60.6024199
0000000666,   5.00000000 ,   5.00000000 ,   5.00000000 ,   5.50877051 ,   5.50877051 ,   60.6023305
0000000667,   6.00000000 ,   5.00000000 ,   5.00000000 ,   5.50887428 ,   5.50887428 ,   60.6024199
0000000668,   7.00000000 ,   5.00000000 ,   5.00000000 ,   5.50918021 ,   5.50918021 ,   60.6026894
0000000669,   8.00000000 ,   5.00000000 ,   5.00000000 ,   5.50964172 ,   5.50964172 ,   60.6031125
0000000670,   9.00000000 ,   5.00000000 ,   5.00000000 ,   5.51010629 ,   5.51010629 ,   60.6035604
0000000671,   10.0000000 ,   5.00000000 ,   5.00000000 ,   5.51031652 ,   5.51031652 ,   60.6037744
0000000672,   0.00000000 ,   6.00000000 ,   5.00000000 ,   5.34957529 ,   5.34957529 ,   60.5653863
0000000673,   1.00000000 ,   6.00000000 ,   5.00000000 ,   5.34900190 ,   5.34900190 ,   60.5647221
0000000674,   2.00000000 ,   6.00000000 ,   5.00000000 ,   5.34779181 ,   5.34779181 ,   60.5634265
0000000675,   3.00000000 ,   6.00000000 ,   5.00000000 ,   5.34664340 ,   5.34664340 ,   60.5622780
0000000676,   4.00000000 ,   6.00000000 ,   5.00000000 ,   5.34591055 ,   5.34591055 ,   60.5615830
0000000677,   5.00000000 ,   6.00000000 ,   5.00000000 ,   5.34566741 ,   5.34566741 ,   60.5613592
0000000678,   6.00000000 ,   6.00000000 ,   5.00000000 ,   5.34591055 ,   5.34591055 ,   60.5615830
0000000679,   7.00000000 ,   6.00000000 ,   5.00000000 ,   5.34664340 ,   5.34664340 ,   60.5622780
0000000680,   8.00000000 ,   6.00000000 ,   5.00000000 ,   5.34779181 ,   5.34779181 ,   60.5634265
0000000681,   9.00000000 ,   6.00000000 ,   5.00000000 ,   5.34900190 ,   5.34900190 ,   60.5647221
0000000682,   10.0000000 ,   6.00000000 ,   5.00000000 ,   5.34957529 ,   5.34957529 ,   60.5653863
0000000683,   0.00000000 ,   7.00000000 ,   5.00000000 ,   5.17724988 ,   5.17724988 ,   60.5315262
0000000684,   1.00000000 ,   7.00000000 ,   5.00000000 ,   5.17582537 ,   5.17582537 ,   60.5295612
0000000685,   2.00000000 ,   7.00000000 ,   5.00000000 ,   5.17299001 ,   5.17299001 ,   60.5260690
0000000686,   3.00000000 ,   7.00000000 ,   5.00000000 ,   5.17043866 ,   5.17043866 ,   60.5232000
0000000687,   4.00000000 ,   7.00000000 ,   5.00000000 ,   5.16887909 ,   5.16887909 ,   60.5215639
0000000688,   5.00000000 ,   7.00000000 ,   5.00000000 ,   5.16837431 ,   5.16837431 ,   60.5210547
0000000689,   6.00000000 ,   7.00000000 ,   5.00000000 ,   5.16887909 ,   5.16887909 ,   60.5215639
0000000690,   7.00000000 ,   7.00000000 ,   5.00000000 ,   5.17043866 ,   5.17043866 ,   60.5232000
0000000691,   8.00000000 ,   7.00000000 ,   5.00000000 ,   5.17299001 ,   5.17299001 ,   60.5260690
0000000692,   9.00000000 ,   7.00000000 ,   5.00000000 ,   5.17582537 ,   5.17582537 ,   60.5295612
0000000693,   10.0000000 ,   7.00000000 ,   5.00000000 ,   5.17724988 ,   5.17724988 ,   60.5315262
0000000694,   0.00000000 ,   8.00000000 ,   5.00000000 ,   4.97709499 ,   4.97709499 ,   60.5283472
0000000695,   1.00000000 ,   8.00000000 ,   5.00000000 ,   4.97407142 ,   4.97407142 ,   60.5229763
0000000696,   2.00000000 ,   8.00000000 ,   5.00000000 ,   4.96847732 ,   4.96847732 ,   60.5145051
0000000697,   3.00000000 ,   8.00000000 ,   5.00000000 ,   4.96373734 ,   4.96373734 ,   60.5081344
0000000698,   4.00000000 ,   8.00000000 ,   5.00000000 ,   4.96097206 ,   4.96097206 ,   60.5047334
0000000699,   5.00000000 ,   8.00000000 ,   5.00000000 ,   4.96010046 ,   4.96010046 ,   60.5037133
0000000700,   6.00000000 ,   8.00000000 ,   5.00000000 ,   4.96097206 ,   4.96097206 ,   60.5047334
0000000701,   7.00000000 ,   8.00000000 ,   5.00000000 ,   4.96373734 ,   4.96373734 ,   60.5081344
0000000702,   8.00000000 ,   8.00000000 ,   5.00000000 ,   4.96847732 ,   4.96847732 ,   60.5145051
0000000703,   9.00000000 ,   8.00000000 ,   5.00000000 ,   4.97407142 ,   4.97407142 ,   60.5229763
0000000704,   10.0000000 ,   8.00000000 ,   5.00000000 ,   4.97709499 ,   4.97709499 ,   60.5283472
0000000705,   0.00000000 ,   9.00000000 ,   5.00000000 ,   4.66894906 ,   4.66894906 ,   60.5826428
0000000706,   1.00000000 ,   9.00000000 ,   5.00000000 ,   4.66441673 ,   4.66441673 ,   60.5699533
0000000707,   2.00000000 ,   9.00000000 ,   5.00000000 ,   4.65673673 ,   4.65673673 ,   60.5526377
0000000708,   3.00000000 ,   9.00000000 ,   5.00000000 ,   4.65063501 ,   4.65063501 ,   60.5408064
0000000709,   4.00000000 ,   9.00000000 ,   5.00000000 ,   4.64723940 ,   4.64723940 ,   60.5349009
0000000710,   5.00000000 ,   9.00000000 ,   5.00000000 ,   4.64619669 ,   4.64619669 ,   60.5331934
0000000711,   6.00000000 ,   9.00000000 ,   5.00000000 ,   4.64723940 ,   4.64723940 ,   60.5349009
0000000712,   7.00000000 ,   9.00000000 ,   5.00000000 ,   4.65063501 ,   4.65063501 ,   60.5408064
0000000713,   8.00000000 ,   9.00000000 ,   5.00000000 ,   4.65673673 ,   4.65673673 ,   60.5526377
0000000714,   9.00000000 ,   9.00000000 ,   5.00000000 ,   4.66441673 ,   4.66441673 ,   60.5699533
0000000715,   10.0000000 ,   9.00000000 ,   5.00000000 ,   4.66894906 ,   4.66894906 ,   60.5826428
0000000716,   0.00000000 ,   10.0000000 ,   5.00000000 ,   4.00000000 ,   4.00000000 ,   60.6698078
0000000717,   1.00000000 ,   10.0000000 ,   5.00000000 ,   4.00000000 ,   4.00000000 ,   60.6479683
0000000718,   2.00000000 ,   10.0000000 ,   5.00000000 ,   4.00000000 ,   4.00000000 ,   60.6222189
0000000719,   3.00000000 ,   10.0000000 ,   5.00000000 ,   4.00000000 ,   4.00000000 ,   60.6059901
0000000720,   4.00000000 ,   10.0000000 ,   5.00000000 ,   4.00000000 ,   4.00000000 ,   60.5982830
0000000721,   5.00000000 ,   10.0000000 ,   5.00000000 ,   4.00000000 ,   4.00000000 ,   60.5961102
0000000722,   6.00000000 ,   10.0000000 ,   5.00000000 ,   4.00000000 ,   4.00000000 ,   60.5982830
0000000723,   7.00000000 ,   10.0000000 ,   5.00000000 ,   4.00000000 ,   4.00000000 ,   60.6059901
0000000724,   8.00000000 ,   10.0000000 ,   5.00000000 ,   4.00000000 ,   4.00000000 ,   60.6222189
0000000725,   9.00000000 ,   10.0000000 ,   5.00000000 ,   4.00000000 ,   4.00000000 ,   60.6479683
0000000726,   10.0000000 ,   10.0000000 ,   5.00000000 ,   4.00000000 ,   4.00000000 ,   60.6698078
0000000727,   0.00000000 ,   0.00000000 ,   6.00000000 ,   6.00000000 ,   6.00000000 ,   60.1668672
0000000728,   1.00000000 ,   0.00000000 ,   6.00000000 ,   6.00000000 ,   6.00000000 ,   60.1668667
0000000729,   2.00000000 ,   0.00000000 ,   6.00000000 ,   6.00000000 ,   6.00000000 ,   60.1668655
0000000730,   3.00000000 ,   0.00000000 ,   6.00000000 ,   6.00000000 ,   6.00000000 ,   60.1668641
0000000731,   4.00000000 ,   0.00000000 ,   6.00000000 ,   6.00000000 ,   6.00000000 ,   60.1668631
0000000732,   5.00000000 ,   0.00000000 ,   6.00000000 ,   6.00000000 ,   6.00000000 ,   60.1668627
0000000733,   6.00000000 ,   0.00000000 ,   6.00000000 ,   6.00000000 ,   6.00000000 ,   60.1668631
0000000734,   7.00000000 ,   0.00000000 ,   6.00000000 ,   6.00000000 ,   6.00000000 ,   60.1668641
0000000735,   8.00000000 ,   0.00000000 ,   6.00000000 ,   6.00000000 ,   6.00000000 ,   60.1668655
0000000736,   9.00000000 ,   0.00000000 ,   6.00000000 ,   6.00000000 ,   6.00000000 ,   60.1668667
0000000737,   10.0000000 ,   0.00000000 ,   6.00000000 ,   6.00000000 ,   6.00000000 ,   60.1668672
0000000738,   0.00000000 ,   1.00000000 ,   6.00000000 ,   5.87583759 ,   5.87583759 ,   60.1633056
0000000739,   1.00000000 ,   1.00000000 ,   6.00000000 ,   5.87583657 ,   5.87583657 ,   60.1633046
0000000740,   2.00000000 ,   1.00000000 ,   6.00000000 ,   5.87583405 ,   5.87583405 ,   60.1633022
0000000741,   3.00000000 ,   1.00000000 ,   6.00000000 ,   5.87583122 ,   5.87583122 ,   60.1632995
0000000742,   4.00000000 ,   1.00000000 ,   6.00000000 ,   5.87582913 ,   5.87582913 ,   60.1632976
0000000743,   5.00000000 ,   1.00000000 ,   6.00000000 ,   5.87582838 ,   5.87582838 ,   60.1632969
0000000744,   6.00000000 ,   1.00000000 ,   6.00000000 ,   5.87582913 ,   5.87582913 ,   60.1632976
0000000745,   7.00000000 ,   1.00000000 ,   6.00000000 ,   5.87583122 ,   5.87583122 ,   60.1632995
0000000746,   8.00000000 ,   1.00000000 ,   6.00000000 ,   5.87583405 ,   5.87583405 ,   60.1633022
0000000747,   9.00000000 ,   1.00000000 ,   6.00000000 ,   5.87583657 ,   5.87583657 ,   60.1633046
0000000748,   10.0000000 ,   1.00000000 ,   6.00000000 ,   5.87583759 ,   5.87583759 ,   60.1633056
0000000749,   0.00000000 ,   2.00000000 ,   6.00000000 ,   5.70484617 ,   5.70484617 ,   60.1368996
0000000750,   1.00000000 ,   2.00000000 ,   6.00000000 ,   5.70484272 ,   5.70484272 ,   60.1368965
0000000751,   2.00000000 ,   2.00000000 ,   6.00000000 ,   5.70483434 ,   5.70483434 ,   60.1368890
0000000752,   3.00000000 ,   2.00000000 ,   6.00000000 ,   5.70482508 ,   5.70482508 ,   60.1368808
0000000753,   4.00000000 ,   2.00000000 ,   6.00000000 ,   5.70481834 ,   5.70481834 ,   60.1368749
0000000754,   5.00000000 ,   2.00000000 ,   6.00000000 ,   5.70481593 ,   5.70481593 ,   60.1368728
0000000755,   6.00000000 ,   2.00000000 ,   6.00000000 ,   5.70481834 ,   5.70481834 ,   60.1368749
0000000756,   7.00000000 ,   2.00000000 ,   6.00000000 ,   5.70482508 ,   5.70482508 ,   60.1368808
0000000757,   8.00000000 ,   2.00000000 ,   6.00000000 ,   5.70483434 ,   5.70483434 ,   60.1368890
0000000758,   9.00000000 ,   2.00000000 ,   6.00000000 ,   5.70484272 ,   5.70484272 ,   60.1368965
0000000759,   10.0000000 ,   2.00000000 ,   6.00000000 ,   5.70484617 ,   5.70484617 ,   60.1368996
0000000760,   0.00000000 ,   3.00000000 ,   6.00000000 ,   5.52851332 ,   5.52851332 ,   60.0764646
0000000761,   1.00000000 ,   3.00000000 ,   6.00000000 ,   5.52850265 ,   5.52850265 ,   60.0764546
0000000762,   2.00000000 ,   3.00000000 ,   6.00000000 ,   5.52847721 ,   5.52847721 ,   60.0764312
0000000763,   3.00000000 ,   3.00000000 ,   6.00000000 ,   5.52844972 ,   5.52844972 ,   60.0764062
0000000764,   4.00000000 ,   3.00000000 ,   6.00000000 ,   5.52843012 ,   5.52843012 ,   60.0763887
0000000765,   5.00000000 ,   3.00000000 ,   6.00000000 ,   5.52842319 ,   5.52842319 ,   60.0763825
0000000766,   6.00000000 ,   3.00000000 ,   6.00000000 ,   5.52843012 ,   5.52843012 ,   60.0763887
0000000767,   7.00000000 ,   3.00000000 ,   6.00000000 ,   5.52844972 ,   5.52844972 ,   60.0764062
0000000768,   8.00000000 ,   3.00000000 ,   6.00000000 ,   5.52847721 ,   5.52847721 ,   60.0764312
0000000769,   9.00000000 ,   3.00000000 ,   6.00000000 ,   5.52850265 ,   5.52850265 ,   60.0764546
0000000770,   10.0000000 ,   3.00000000 ,   6.00000000 ,   5.52851332 ,   5.52851332 ,   60.0764646
0000000771,   0.00000000 ,   4.00000000 ,   6.00000000 ,   5.34507039 ,   5.34507039 ,   59.9820195
0000000772,   1.00000000 ,   4.00000000 ,   6.00000000 ,   5.34503903 ,   5.34503903 ,   59.9819887
0000000773,   2.00000000 ,   4.00000000 ,   6.00000000 ,   5.34496601 ,   5.34496601 ,   59.9819185
0000000774,   3.00000000 ,   4.00000000 ,   6.00000000 ,   5.34488926 ,   5.34488926 ,   59.9818463
0000000775,   4.00000000 ,   4.00000000 ,   6.00000000 ,   5.34483585 ,   5.34483585 ,   59.9817970
0000000776,   5.00000000 ,   4.00000000 ,   6.00000000 ,   5.34481722 ,   5.34481722 ,   59.9817799
0000000777,   6.00000000 ,   4.00000000 ,   6.00000000 ,   5.34483585 ,   5.34483585 ,   59.9817970
0000000778,   7.00000000 ,   4.00000000 ,   6.00000000 ,   5.34488926 ,   5.34488926 ,   59.9818463
0000000779,   8.00000000 ,   4.00000000 ,   6.00000000 ,   5.34496601 ,   5.34496601 ,   59.9819185
0000000780,   9.00000000 ,   4.00000000 ,   6.00000000 ,   5.34503903 ,   5.34503903 ,   59.9819887
0000000781,   10.0000000 ,   4.00000000 ,   6.00000000 ,   5.34507039 ,   5.34507039 ,   59.9820195
0000000782,   0.00000000 ,   5.00000000 ,   6.00000000 ,   5.15106825 ,   5.15106825 ,   59.8607240
0000000783,   1.00000000 ,   5.00000000 ,   6.00000000 ,   5.15098112 ,   5.15098112 ,   59.8606327
0000000784,   2.00000000 ,   5.00000000 ,   6.00000000 ,   5.15078414 ,   5.15078414 ,   59.8604326
0000000785,   3.00000000 ,   5.00000000 ,   6.00000000 ,   5.15058381 ,   5.15058381 ,   59.8602352
0000000786,   4.00000000 ,   5.00000000 ,   6.00000000 ,   5.15044838 ,   5.15044838 ,   59.8601049
0000000787,   5.00000000 ,   5.00000000 ,   6.00000000 ,   5.15040192 ,   5.15040192 ,   59.8600609
0000000788,   6.00000000 ,   5.00000000 ,   6.00000000 ,   5.15044838 ,   5.15044838 ,   59.8601049
0000000789,   7.00000000 ,   5.00000000 ,   6.00000000 ,   5.15058381 ,   5.15058381 ,   59.8602352
0000000790,   8.00000000 ,   5.00000000 ,   6.00000000 ,   5.15078414 ,   5.15078414 ,   59.8604326
0000000791,   9.00000000 ,   5.00000000 ,   6.00000000 ,   5.15098112 ,   5.15098112 ,   59.8606327
0000000792,   10.0000000 ,   5.00000000 ,   6.00000000 ,   5.15106825 ,   5.15106825 ,   59.8607240
0000000793,   0.00000000 ,   6.00000000 ,   6.00000000 ,   4.94720090 ,   4.94720090 ,   59.7231911
0000000794,   1.00000000 ,   6.00000000 ,   6.00000000 ,   4.94697571 ,   4.94697571 ,   59.7229336
0000000795,   2.00000000 ,   6.00000000 ,   6.00000000 ,   4.94648500 ,   4.94648500 ,   59.7223973
0000000796,   3.00000000 ,   6.00000000 ,   6.00000000 ,   4.94600487 ,   4.94600487 ,   59.7218939
0000000797,   4.00000000 ,   6.00000000 ,   6.00000000 ,   4.94569078 ,   4.94569078 ,   59.7215751
0000000798,   5.00000000 ,   6.00000000 ,   6.00000000 ,   4.94558508 ,   4.94558508 ,   59.7214698
0000000799,   6.00000000 ,   6.00000000 ,   6.00000000 ,   4.94569078 ,   4.94569078 ,   59.7215751
0000000800,   7.00000000 ,   6.00000000 ,   6.00000000 ,   4.94600487 ,   4.94600487 ,   59.7218939
0000000801,   8.00000000 ,   6.00000000 ,   6.00000000 ,   4.94648500 ,   4.94648500 ,   59.7223973
0000000802,   9.00000000 ,   6.00000000 ,   6.00000000 ,   4.94697571 ,   4.94697571 ,   59.7229336
0000000803,   10.0000000 ,   6.00000000 ,   6.00000000 ,   4.94720090 ,   4.94720090 ,   59.7231911
0000000804,   0.00000000 ,   7.00000000 ,   6.00000000 ,   4.73508004 ,   4.73508004 ,   59.5824003
0000000805,   1.00000000 ,   7.00000000 ,   6.00000000 ,   4.73455522 ,   4.73455522 ,   59.5817222
0000000806,   2.00000000 ,   7.00000000 ,   6.00000000 ,   4.73346232 ,   4.73346232 ,   59.5803999
0000000807,   3.00000000 ,   7.00000000 ,   6.00000000 ,   4.73243900 ,   4.73243900 ,   59.5792287
0000000808,   4.00000000 ,   7.00000000 ,   6.00000000 ,   4.73179336 ,   4.73179336 ,   59.5785209
0000000809,   5.00000000 ,   7.00000000 ,   6.00000000 ,   4.73158061 ,   4.73158061 ,   59.5782932
0000000810,   6.00000000 ,   7.00000000 ,   6.00000000 ,   4.73179336 ,   4.73179336 ,   59.5785209
0000000811,   7.00000000 ,   7.00000000 ,   6.00000000 ,   4.73243900 ,   4.73243900 ,   59.5792287
0000000812,   8.00000000 ,   7.00000000 ,   6.00000000 ,   4.73346232 ,   4.73346232 ,   59.5803999
0000000813,   9.00000000 ,   7.00000000 ,   6.00000000 ,   4.73455522 ,   4.73455522 ,   59.5817222
0000000814,   10.0000000 ,   7.00000000 ,   6.00000000 ,   4.73508004 ,   4.73508004 ,   59.5824003
0000000815,   0.00000000 ,   8.00000000 ,   6.00000000 ,   4.51188795 ,   4.51188795 ,   59.4549132
0000000816,   1.00000000 ,   8.00000000 ,   6.00000000 ,   4.51085609 ,   4.51085609 ,   59.4533015
0000000817,   2.00000000 ,   8.00000000 ,   6.00000000 ,   4.50882113 ,   4.50882113 ,   59.4504066
0000000818,   3.00000000 ,   8.00000000 ,   6.00000000 ,   4.50700526 ,   4.50700526 ,   59.4480062
0000000819,   4.00000000 ,   8.00000000 ,   6.00000000 ,   4.50590281 ,   4.50590281 ,   59.4466269
0000000820,   5.00000000 ,   8.00000000 ,   6.00000000 ,   4.50554740 ,   4.50554740 ,   59.4461957
0000000821,   6.00000000 ,   8.00000000 ,   6.00000000 ,   4.50590281 ,   4.50590281 ,   59.4466269
0000000822,   7.00000000 ,   8.00000000 ,   6.00000000 ,   4.50700526 ,   4.50700526 ,   59.4480062
0000000823,   8.00000000 ,   8.00000000 ,   6.00000000 ,   4.50882113 ,   4.50882113 ,   59.4504066
0000000824,   9.00000000 ,   8.00000000 ,   6.00000000 ,   4.51085609 ,   4.51085609 ,   59.4533015
0000000825,   10.0000000 ,   8.00000000 ,   6.00000000 ,   4.51188795 ,   4.51188795 ,   59.4549132
0000000826,   0.00000000 ,   9.00000000 ,   6.00000000 ,   4.26672775 ,   4.26672775 ,   59.3637451
0000000827,   1.00000000 ,   9.00000000 ,   6.00000000 ,   4.26531629 ,   4.26531629 ,   59.3605091
0000000828,   2.00000000 ,   9.00000000 ,   6.00000000 ,   4.26269816 ,   4.26269816 ,   59.3552281
0000000829,   3.00000000 ,   9.00000000 ,   6.00000000 ,   4.26047221 ,   4.26047221 ,   59.3511382
0000000830,   4.00000000 ,   9.00000000 ,   6.00000000 ,   4.25916918 ,   4.25916918 ,   59.3489016
0000000831,   5.00000000 ,   9.00000000 ,   6.00000000 ,   4.25875755 ,   4.25875755 ,   59.3482210
0000000832,   6.00000000 ,   9.00000000 ,   6.00000000 ,   4.25916918 ,   4.25916918 ,   59.3489016
0000000833,   7.00000000 ,   9.00000000 ,   6.00000000 ,   4.26047221 ,   4.26047221 ,   59.3511382
0000000834,   8.00000000 ,   9.00000000 ,   6.00000000 ,   4.26269816 ,   4.26269816 ,   59.3552281
0000000835,   9.00000000 ,   9.00000000 ,   6.00000000 ,   4.26531629 ,   4.26531629 ,   59.3605091
0000000836,   10.0000000 ,   9.00000000 ,   6.00000000 ,   4.26672775 ,   4.26672775 ,   59.3637451
0000000837,   0.00000000 ,   10.0000000 ,   6.00000000 ,   4.00000000 ,   4.00000000 ,   59.3409899
0000000838,   1.00000000 ,   10.0000000 ,   6.00000000 ,   4.00000000 ,   4.00000000 ,   59.3362638
0000000839,   2.00000000 ,   10.0000000 ,   6.00000000 ,   4.00000000 ,   4.00000000 ,   59.3291883
0000000840,   3.00000000 ,   10.0000000 ,   6.00000000 ,   4.00000000 ,   4.00000000 ,   59.3239818
0000000841,   4.00000000 ,   10.0000000 ,   6.00000000 ,   4.00000000 ,   4.00000000 ,   59.3212265
0000000842,   5.00000000 ,   10.0000000 ,   6.00000000 ,   4.00000000 ,   4.00000000 ,   59.3204022
0000000843,   6.00000000 ,   10.0000000 ,   6.00000000 ,   4.00000000 ,   4.00000000 ,   59.3212265
0000000844,   7.00000000 ,   10.0000000 ,   6.00000000 ,   4.00000000 ,   4.00000000 ,   59.3239818
0000000845,   8.00000000 ,   10.0000000 ,   6.00000000 ,   4.00000000 ,   4.00000000 ,   59.3291883
0000000846,   9.00000000 ,   10.0000000 ,   6.00000000 ,   4.00000000 ,   4.00000000 ,   59.3362638
0000000847,   10.0000000 ,   10.0000000 ,   6.00000000 ,   4.00000000 ,   4.00000000 ,   59.3409899
0000000848,   0.00000000 ,   0.00000000 ,   7.00000000 ,   6.00000000 ,   6.00000000 ,   59.9945511
0000000849,   1.00000000 ,   0.00000000 ,   7.00000000 ,   6.00000000 ,   6.00000000 ,   59.9945511
0000000850,   2.00000000 ,   0.00000000 ,   7.00000000 ,   6.00000000 ,   6.00000000 ,   59.9945510
0000000851,   3.00000000 ,   0.00000000 ,   7.00000000 ,   6.00000000 ,   6.00000000 ,   59.9945509
0000000852,   4.00000000 ,   0.00000000 ,   7.00000000 ,   6.00000000 ,   6.00000000 ,   59.9945508
0000000853,   5.00000000 ,   0.00000000 ,   7.00000000 ,   6.00000000 ,   6.00000000 ,   59.9945508
0000000854,   6.00000000 ,   0.00000000 ,   7.00000000 ,   6.00000000 ,   6.00000000 ,   59.9945508
0000000855,   7.00000000 ,   0.00000000 ,   7.00000000 ,   6.00000000 ,   6.00000000 ,   59.9945509
0000000856,   8.00000000 ,   0.00000000 ,   7.00000000 ,   6.00000000 ,   6.00000000 ,   59.9945510
0000000857,   9.00000000 ,   0.00000000 ,   7.00000000 ,   6.00000000 ,   6.00000000 ,   59.9945511
0000000858,   10.0000000 ,   0.00000000 ,   7.00000000 ,   6.00000000 ,   6.00000000 ,   59.9945511
0000000859,   0.00000000 ,   1.00000000 ,   7.00000000 ,   5.80778881 ,   5.80778881 ,   59.9607896
0000000860,   1.00000000 ,   1.00000000 ,   7.00000000 ,   5.80778881 ,   5.80778881 ,   59.9607894
0000000861,   2.00000000 ,   1.00000000 ,   7.00000000 ,   5.80778882 ,   5.80778882 ,   59.9607891
0000000862,   3.00000000 ,   1.00000000 ,   7.00000000 ,   5.80778884 ,   5.80778884 ,   59.9607887
0000000863,   4.00000000 ,   1.00000000 ,   7.00000000 ,   5.80778885 ,   5.80778885 ,   59.9607885
0000000864,   5.00000000 ,   1.00000000 ,   7.00000000 ,   5.80778886 ,   5.80778886 ,   59.9607884
0000000865,   6.00000000 ,   1.00000000 ,   7.00000000 ,   5.80778885 ,   5.80778885 ,   59.9607885
0000000866,   7.00000000 ,   1.00000000 ,   7.00000000 ,   5.80778884 ,   5.80778884 ,   59.9607887
0000000867,   8.00000000 ,   1.00000000 ,   7.00000000 ,   5.80778882 ,   5.80778882 ,   59.9607891
0000000868,   9.00000000 ,   1.00000000 ,   7.00000000 ,   5.80778881 ,   5.80778881 ,   59.9607894
0000000869,   10.0000000 ,   1.00000000 ,   7.00000000 ,   5.80778881 ,   5.80778881 ,   59.9607896
0000000870,   0.00000000 ,   2.00000000 ,   7.00000000 ,   5.61433451 ,   5.61433451 ,   59.8621848
0000000871,   1.00000000 ,   2.00000000 ,   7.00000000 ,   5.61433453 ,   5.61433453 ,   59.8621844
0000000872,   2.00000000 ,   2.00000000 ,   7.00000000 ,   5.61433456 ,   5.61433456 ,   59.8621834
0000000873,   3.00000000 ,   2.00000000 ,   7.00000000 ,   5.61433460 ,   5.61433460 ,   59.8621822
0000000874,   4.00000000 ,   2.00000000 ,   7.00000000 ,   5.61433462 ,   5.61433462 ,   59.8621814
0000000875,   5.00000000 ,   2.00000000 ,   7.00000000 ,   5.61433464 ,   5.61433464 ,   59.8621811
0000000876,   6.00000000 ,   2.00000000 ,   7.00000000 ,   5.61433462 ,   5.61433462 ,   59.8621814
0000000877,   7.00000000 ,   2.00000000 ,   7.00000000 ,   5.61433460 ,   5.61433460 ,   59.8621822
0000000878,   8.00000000 ,   2.00000000 ,   7.00000000 ,   5.61433456 ,   5.61433456 ,   59.8621834
0000000879,   9.00000000 ,   2.00000000 ,   7.00000000 ,   5.61433453 ,   5.61433453 ,   59.8621844
0000000880,   10.0000000 ,   2.00000000 ,   7.00000000 ,   5.61433451 ,   5.61433451 ,   59.8621848
0000000881,   0.00000000 ,   3.00000000 ,   7.00000000 ,   5.41932965 ,   5.41932965 ,   59.7025712
0000000882,   1.00000000 ,   3.00000000 ,   7.00000000 ,   5.41932968 ,   5.41932968 ,   59.7025699
0000000883,   2.00000000 ,   3.00000000 ,   7.00000000 ,   5.41932974 ,   5.41932974 ,   59.7025666
0000000884,   3.00000000 ,   3.00000000 ,   7.00000000 ,   5.41932981 ,   5.41932981 ,   59.7025632
0000000885,   4.00000000 ,   3.00000000 ,   7.00000000 ,   5.41932987 ,   5.41932987 ,   59.7025607
0000000886,   5.00000000 ,   3.00000000 ,   7.00000000 ,   5.41932989 ,   5.41932989 ,   59.7025598
0000000887,   6.00000000 ,   3.00000000 ,   7.00000000 ,   5.41932987 ,   5.41932987 ,   59.7025607
0000000888,   7.00000000 ,   3.00000000 ,   7.00000000 ,   5.41932981 ,   5.41932981 ,   59.7025632
0000000889,   8.00000000 ,   3.00000000 ,   7.00000000 ,   5.41932974 ,   5.41932974 ,   59.7025666
0000000890,   9.00000000 ,   3.00000000 ,   7.00000000 ,   5.41932968 ,   5.41932968 ,   59.7025699
0000000891,   10.0000000 ,   3.00000000 ,   7.00000000 ,   5.41932965 ,   5.41932965 ,   59.7025712
0000000892,   0.00000000 ,   4.00000000 ,   7.00000000 ,   5.22254347 ,   5.22254347 ,   59.4904178
0000000893,   1.00000000 ,   4.00000000 ,   7.00000000 ,   5.22254351 ,   5.22254351 ,   59.4904137
0000000894,   2.00000000 ,   4.00000000 ,   7.00000000 ,   5.22254363 ,   5.22254363 ,   59.4904041
0000000895,   3.00000000 ,   4.00000000 ,   7.00000000 ,   5.22254376 ,   5.22254376 ,   59.4903941
0000000896,   4.00000000 ,   4.00000000 ,   7.00000000 ,   5.22254387 ,   5.22254387 ,   59.4903872
0000000897,   5.00000000 ,   4.00000000 ,   7.00000000 ,   5.22254391 ,   5.22254391 ,   59.4903848
0000000898,   6.00000000 ,   4.00000000 ,   7.00000000 ,   5.22254387 ,   5.22254387 ,   59.4903872
0000000899,   7.00000000 ,   4.00000000 ,   7.00000000 ,   5.22254376 ,   5.22254376 ,   59.4903941
0000000900,   8.00000000 ,   4.00000000 ,   7.00000000 ,   5.22254363 ,   5.22254363 ,   59.4904041
0000000901,   9.00000000 ,   4.00000000 ,   7.00000000 ,   5.22254351 ,   5.22254351 ,   59.4904137
0000000902,   10.0000000 ,   4.00000000 ,   7.00000000 ,   5.22254347 ,   5.22254347 ,   59.4904178
0000000903,   0.00000000 ,   5.00000000 ,   7.00000000 ,   5.02382383 ,   5.02382383 ,   59.2364876
0000000904,   1.00000000 ,   5.00000000 ,   7.00000000 ,   5.02382391 ,   5.02382391 ,   59.2364756
0000000905,   2.00000000 ,   5.00000000 ,   7.00000000 ,   5.02382412 ,   5.02382412 ,   59.2364486
0000000906,   3.00000000 ,   5.00000000 ,   7.00000000 ,   5.02382436 ,   5.02382436 ,   59.2364213
0000000907,   4.00000000 ,   5.00000000 ,   7.00000000 ,   5.02382454 ,   5.02382454 ,   59.2364028
0000000908,   5.00000000 ,   5.00000000 ,   7.00000000 ,   5.02382460 ,   5.02382460 ,   59.2363965
0000000909,   6.00000000 ,   5.00000000 ,   7.00000000 ,   5.02382454 ,   5.02382454 ,   59.2364028
0000000910,   7.00000000 ,   5.00000000 ,   7.00000000 ,   5.02382436 ,   5.02382436 ,   59.2364213
0000000911,   8.00000000 ,   5.00000000 ,   7.00000000 ,   5.02382412 ,   5.02382412 ,   59.2364486
0000000912,   9.00000000 ,   5.00000000 ,   7.00000000 ,   5.02382391 ,   5.02382391 ,   59.2364756
0000000913,   10.0000000 ,   5.00000000 ,   7.00000000 ,   5.02382383 ,   5.02382383 ,   59.2364876
0000000914,   0.00000000 ,   6.00000000 ,   7.00000000 ,   4.82308663 ,   4.82308663 ,   58.9522712
0000000915,   1.00000000 ,   6.00000000 ,   7.00000000 ,   4.82308677 ,   4.82308677 ,   58.9522378
0000000916,   2.00000000 ,   6.00000000 ,   7.00000000 ,   4.82308712 ,   4.82308712 ,   58.9521657
0000000917,   3.00000000 ,   6.00000000 ,   7.00000000 ,   4.82308752 ,   4.82308752 ,   58.9520956
0000000918,   4.00000000 ,   6.00000000 ,   7.00000000 ,   4.82308781 ,   4.82308781 ,   58.9520500
0000000919,   5.00000000 ,   6.00000000 ,   7.00000000 ,   4.82308792 ,   4.82308792 ,   58.9520347
0000000920,   6.00000000 ,   6.00000000 ,   7.00000000 ,   4.82308781 ,   4.82308781 ,   58.9520500
0000000921,   7.00000000 ,   6.00000000 ,   7.00000000 ,   4.82308752 ,   4.82308752 ,   58.9520956
0000000922,   8.00000000 ,   6.00000000 ,   7.00000000 ,   4.82308712 ,   4.82308712 ,   58.9521657
0000000923,   9.00000000 ,   6.00000000 ,   7.00000000 ,   4.82308677 ,   4.82308677 ,   58.9522378
0000000924,   10.0000000 ,   6.00000000 ,   7.00000000 ,   4.82308663 ,   4.82308663 ,   58.9522712
0000000925,   0.00000000 ,   7.00000000 ,   7.00000000 ,   4.62030188 ,   4.62030188 ,   58.6492656
0000000926,   1.00000000 ,   7.00000000 ,   7.00000000 ,   4.62030211 ,   4.62030211 ,   58.6491788
0000000927,   2.00000000 ,   7.00000000 ,   7.00000000 ,   4.62030266 ,   4.62030266 ,   58.6490007
0000000928,   3.00000000 ,   7.00000000 ,   7.00000000 ,   4.62030325 ,   4.62030325 ,   58.6488358
0000000929,   4.00000000 ,   7.00000000 ,   7.00000000 ,   4.62030368 ,   4.62030368 ,   58.6487323
0000000930,   5.00000000 ,   7.00000000 ,   7.00000000 ,   4.62030383 ,   4.62030383 ,   58.6486983
0000000931,   6.00000000 ,   7.00000000 ,   7.00000000 ,   4.62030368 ,   4.62030368 ,   58.6487323
0000000932,   7.00000000 ,   7.00000000 ,   7.00000000 ,   4.62030325 ,   4.62030325 ,   58.6488358
0000000933,   8.00000000 ,   7.00000000 ,   7.00000000 ,   4.62030266 ,   4.62030266 ,   58.6490007
0000000934,   9.00000000 ,   7.00000000 ,   7.00000000 ,   4.62030211 ,   4.62030211 ,   58.6491788
0000000935,   10.0000000 ,   7.00000000 ,   7.00000000 ,   4.62030188 ,   4.62030188 ,   58.6492656
0000000936,   0.00000000 ,   8.00000000 ,   7.00000000 ,   4.41548130 ,   4.41548130 ,   58.3400412
0000000937,   1.00000000 ,   8.00000000 ,   7.00000000 ,   4.41548163 ,   4.41548163 ,   58.3398371
0000000938,   2.00000000 ,   8.00000000 ,   7.00000000 ,   4.41548236 ,   4.41548236 ,   58.3394432
0000000939,   3.00000000 ,   8.00000000 ,   7.00000000 ,   4.41548312 ,   4.41548312 ,   58.3390961
0000000940,   4.00000000 ,   8.00000000 ,   7.00000000 ,   4.41548365 ,   4.41548365 ,   58.3388868
0000000941,   5.00000000 ,   8.00000000 ,   7.00000000 ,   4.41548384 ,   4.41548384 ,   58.3388195
0000000942,   6.00000000 ,   8.00000000 ,   7.00000000 ,   4.41548365 ,   4.41548365 ,   58.3388868
0000000943,   7.00000000 ,   8.00000000 ,   7.00000000 ,   4.41548312 ,   4.41548312 ,   58.3390961
0000000944,   8.00000000 ,   8.00000000 ,   7.00000000 ,   4.41548236 ,   4.41548236 ,   58.3394432
0000000945,   9.00000000 ,   8.00000000 ,   7.00000000 ,   4.41548163 ,   4.41548163 ,   58.3398371
0000000946,   10.0000000 ,   8.00000000 ,   7.00000000 ,   4.41548130 ,   4.41548130 ,   58.3400412
0000000947,   0.00000000 ,   9.00000000 ,   7.00000000 ,   4.20867323 ,   4.20867323 ,   58.0508515
0000000948,   1.00000000 ,   9.00000000 ,   7.00000000 ,   4.20867355 ,   4.20867355 ,   58.0504444
0000000949,   2.00000000 ,   9.00000000 ,   7.00000000 ,   4.20867424 ,   4.20867424 ,   58.0497071
0000000950,   3.00000000 ,   9.00000000 ,   7.00000000 ,   4.20867492 ,   4.20867492 ,   58.0490883
0000000951,   4.00000000 ,   9.00000000 ,   7.00000000 ,   4.20867537 ,   4.20867537 ,   58.0487283
0000000952,   5.00000000 ,   9.00000000 ,   7.00000000 ,   4.20867552 ,   4.20867552 ,   58.0486148
0000000953,   6.00000000 ,   9.00000000 ,   7.00000000 ,   4.20867537 ,   4.20867537 ,   58.0487283
0000000954,   7.00000000 ,   9.00000000 ,   7.00000000 ,   4.20867492 ,   4.20867492 ,   58.0490883
0000000955,   8.00000000 ,   9.00000000 ,   7.00000000 ,   4.20867424 ,   4.20867424 ,   58.0497071
0000000956,   9.00000000 ,   9.00000000 ,   7.00000000 ,   4.20867355 ,   4.20867355 ,   58.0504444
0000000957,   10.0000000 ,   9.00000000 ,   7.00000000 ,   4.20867323 ,   4.20867323 ,   58.0508515
0000000958,   0.00000000 ,   10.0000000 ,   7.00000000 ,   4.00000000 ,   4.00000000 ,   57.9404779
0000000959,   1.00000000 ,   10.0000000 ,   7.00000000 ,   4.00000000 ,   4.00000000 ,   57.9399263
0000000960,   2.00000000 ,   10.0000000 ,   7.00000000 ,   4.00000000 ,   4.00000000 ,   57.9389681
0000000961,   3.00000000 ,   10.0000000 ,   7.00000000 ,   4.00000000 ,   4.00000000 ,   57.9381847
0000000962,   4.00000000 ,   10.0000000 ,   7.00000000 ,   4.00000000 ,   4.00000000 ,   57.9377369
0000000963,   5.00000000 ,   10.0000000 ,   7.00000000 ,   4.00000000 ,   4.00000000 ,   57.9375971
0000000964,   6.00000000 ,   10.0000000 ,   7.00000000 ,   4.00000000 ,   4.00000000 ,   57.9377369
0000000965,   7.00000000 ,   10.0000000 ,   7.00000000 ,   4.00000000 ,   4.00000000 ,   57.9381847
0000000966,   8.00000000 ,   10.0000000 ,   7.00000000 ,   4.00000000 ,   4.00000000 ,   57.9389681
0000000967,   9.00000000 ,   10.0000000 ,   7.00000000 ,   4.00000000 ,   4.00000000 ,   57.9399263
0000000968,   10.0000000 ,   10.0000000 ,   7.00000000 ,   4.00000000 ,   4.00000000 ,   57.9404779
0000000969,   0.00000000 ,   0.00000000 ,   8.00000000 ,   6.00000000 ,   6.00000000 ,   59.8135781
0000000970,   1.00000000 ,   0.00000000 ,   8.00000000 ,   6.00000000 ,   6.00000000 ,   59.8135781
0000000971,   2.00000000 ,   0.00000000 ,   8.00000000 ,   6.00000000 ,   6.00000000 ,   59.8135781
0000000972,   3.00000000 ,   0.00000000 ,   8.00000000 ,   6.00000000 ,   6.00000000 ,   59.8135781
0000000973,   4.00000000 ,   0.00000000 ,   8.00000000 ,   6.00000000 ,   6.00000000 ,   59.8135781
0000000974,   5.00000000 ,   0.00000000 ,   8.00000000 ,   6.00000000 ,   6.00000000 ,   59.8135780
0000000975,   6.00000000 ,   0.00000000 ,   8.00000000 ,   6.00000000 ,   6.00000000 ,   59.8135781
0000000976,   7.00000000 ,   0.00000000 ,   8.00000000 ,   6.00000000 ,   6.00000000 ,   59.8135781
0000000977,   8.00000000 ,   0.00000000 ,   8.00000000 ,   6.00000000 ,   6.00000000 ,   59.8135781
0000000978,   9.00000000 ,   0.00000000 ,   8.00000000 ,   6.00000000 ,   6.00000000 ,   59.8135781
0000000979,   10.0000000 ,   0.00000000 ,   8.00000000 ,   6.00000000 ,   6.00000000 ,   59.8135781
0000000980,   0.00000000 ,   1.00000000 ,   8.00000000 ,   5.80966277 ,   5.80966277 ,   59.3152754
0000000981,   1.00000000 ,   1.00000000 ,   8.00000000 ,   5.80966277 ,   5.80966277 ,   59.3152754
0000000982,   2.00000000 ,   1.00000000 ,   8.00000000 ,   5.80966278 ,   5.80966278 ,   59.3152753
0000000983,   3.00000000 ,   1.00000000 ,   8.00000000 ,   5.80966278 ,   5.80966278 ,   59.3152752
0000000984,   4.00000000 ,   1.00000000 ,   8.00000000 ,   5.80966279 ,   5.80966279 ,   59.3152752
0000000985,   5.00000000 ,   1.00000000 ,   8.00000000 ,   5.80966279 ,   5.80966279 ,   59.3152752
0000000986,   6.00000000 ,   1.00000000 ,   8.00000000 ,   5.80966279 ,   5.80966279 ,   59.3152752
0000000987,   7.00000000 ,   1.00000000 ,   8.00000000 ,   5.80966278 ,   5.80966278 ,   59.3152752
0000000988,   8.00000000 ,   1.00000000 ,   8.00000000 ,   5.80966278 ,   5.80966278 ,   59.3152753
0000000989,   9.00000000 ,   1.00000000 ,   8.00000000 ,   5.80966277 ,   5.80966277 ,   59.3152754
0000000990,   10.0000000 ,   1.00000000 ,   8.00000000 ,   5.80966277 ,   5.80966277 ,   59.3152754
0000000991,   0.00000000 ,   2.00000000 ,   8.00000000 ,   5.61754982 ,   5.61754982 ,   58.6692375
0000000992,   1.00000000 ,   2.00000000 ,   8.00000000 ,   5.61754983 ,   5.61754983 ,   58.6692374
0000000993,   2.00000000 ,   2.00000000 ,   8.00000000 ,   5.61754984 ,   5.61754984 ,   58.6692372
0000000994,   3.00000000 ,   2.00000000 ,   8.00000000 ,   5.61754985 ,   5.61754985 ,   58.6692371
0000000995,   4.00000000 ,   2.00000000 ,   8.00000000 ,   5.61754986 ,   5.61754986 ,   58.6692369
0000000996,   5.00000000 ,   2.00000000 ,   8.00000000 ,   5.61754987 ,   5.61754987 ,   58.6692369
0000000997,   6.00000000 ,   2.00000000 ,   8.00000000 ,   5.61754986 ,   5.61754986 ,   58.6692369
0000000998,   7.00000000 ,   2.00000000 ,   8.00000000 ,   5.61754985 ,   5.61754985 ,   58.6692371
0000000999,   8.00000000 ,   2.00000000 ,   8.00000000 ,   5.61754984 ,   5.61754984 ,   58.6692372
0000001000,   9.00000000 ,   2.00000000 ,   8.00000000 ,   5.61754983 ,   5.61754983 ,   58.6692374
0000001001,   10.0000000 ,   2.00000000 ,   8.00000000 ,   5.61754982 ,   5.61754982 ,   58.6692375
0000001002,   0.00000000 ,   3.00000000 ,   8.00000000 ,   5.42319574 ,   5.42319574 ,   57.9479254
0000001003,   1.00000000 ,   3.00000000 ,   8.00000000 ,   5.42319575 ,   5.42319575 ,   57.9479252
0000001004,   2.00000000 ,   3.00000000 ,   8.00000000 ,   5.42319577 ,   5.42319577 ,   57.9479248
0000001005,   3.00000000 ,   3.00000000 ,   8.00000000 ,   5.42319580 ,   5.42319580 ,   57.9479243
0000001006,   4.00000000 ,   3.00000000 ,   8.00000000 ,   5.42319582 ,   5.42319582 ,   57.9479239
0000001007,   5.00000000 ,   3.00000000 ,   8.00000000 ,   5.42319583 ,   5.42319583 ,   57.9479238
0000001008,   6.00000000 ,   3.00000000 ,   8.00000000 ,   5.42319582 ,   5.42319582 ,   57.9479239
0000001009,   7.00000000 ,   3.00000000 ,   8.00000000 ,   5.42319580 ,   5.42319580 ,   57.9479243
0000001010,   8.00000000 ,   3.00000000 ,   8.00000000 ,   5.42319577 ,   5.42319577 ,   57.9479248
0000001011,   9.00000000 ,   3.00000000 ,   8.00000000 ,   5.42319575 ,   5.42319575 ,   57.9479252
0000001012,   10.0000000 ,   3.00000000 ,   8.00000000 ,   5.42319574 ,   5.42319574 ,   57.9479254
0000001013,   0.00000000 ,   4.00000000 ,   8.00000000 ,   5.22645830 ,   5.22645830 ,   57.1992663
0000001014,   1.00000000 ,   4.00000000 ,   8.00000000 ,   5.22645832 ,   5.22645832 ,   57.1992658
0000001015,   2.00000000 ,   4.00000000 ,   8.00000000 ,   5.22645836 ,   5.22645836 ,   57.1992645
0000001016,   3.00000000 ,   4.00000000 ,   8.00000000 ,   5.22645840 ,   5.22645840 ,   57.1992631
0000001017,   4.00000000 ,   4.00000000 ,   8.00000000 ,   5.22645844 ,   5.22645844 ,   57.1992621
0000001018,   5.00000000 ,   4.00000000 ,   8.00000000 ,   5.22645846 ,   5.22645846 ,   57.1992617
0000001019,   6.00000000 ,   4.00000000 ,   8.00000000 ,   5.22645844 ,   5.22645844 ,   57.1992621
0000001020,   7.00000000 ,   4.00000000 ,   8.00000000 ,   5.22645840 ,   5.22645840 ,   57.1992631
0000001021,   8.00000000 ,   4.00000000 ,   8.00000000 ,   5.22645836 ,   5.22645836 ,   57.1992645
0000001022,   9.00000000 ,   4.00000000 ,   8.00000000 ,   5.22645832 ,   5.22645832 ,   57.1992658
0000001023,   10.0000000 ,   4.00000000 ,   8.00000000 ,   5.22645830 ,   5.22645830 ,   57.1992663
0000001024,   0.00000000 ,   5.00000000 ,   8.00000000 ,   5.02735181 ,   5.02735181 ,   56.4541427
0000001025,   1.00000000 ,   5.00000000 ,   8.00000000 ,   5.02735183 ,   5.02735183 ,   56.4541411
0000001026,   2.00000000 ,   5.00000000 ,   8.00000000 ,   5.02735190 ,   5.02735190 ,   56.4541374
0000001027,   3.00000000 ,   5.00000000 ,   8.00000000 ,   5.02735198 ,   5.02735198 ,   56.4541336
0000001028,   4.00000000 ,   5.00000000 ,   8.00000000 ,   5.02735204 ,   5.02735204 ,   56.4541310
0000001029,   5.00000000 ,   5.00000000 ,   8.00000000 ,   5.02735206 ,   5.02735206 ,   56.4541301
0000001030,   6.00000000 ,   5.00000000 ,   8.00000000 ,   5.02735204 ,   5.02735204 ,   56.4541310
0000001031,   7.00000000 ,   5.00000000 ,   8.00000000 ,   5.02735198 ,   5.02735198 ,   56.4541336
0000001032,   8.00000000 ,   5.00000000 ,   8.00000000 ,   5.02735190 ,   5.02735190 ,   56.4541374
0000001033,   9.00000000 ,   5.00000000 ,   8.00000000 ,   5.02735183 ,   5.02735183 ,   56.4541411
0000001034,   10.0000000 ,   5.00000000 ,   8.00000000 ,   5.02735181 ,   5.02735181 ,   56.4541427
0000001035,   0.00000000 ,   6.00000000 ,   8.00000000 ,   4.82596168 ,   4.82596168 ,   55.7321127
0000001036,   1.00000000 ,   6.00000000 ,   8.00000000 ,   4.82596172 ,   4.82596172 ,   55.7321082
0000001037,   2.00000000 ,   6.00000000 ,   8.00000000 ,   4.82596182 ,   4.82596182 ,   55.7320984
0000001038,   3.00000000 ,   6.00000000 ,   8.00000000 ,   4.82596194 ,   4.82596194 ,   55.7320885
0000001039,   4.00000000 ,   6.00000000 ,   8.00000000 ,   4.82596203 ,   4.82596203 ,   55.7320820
0000001040,   5.00000000 ,   6.00000000 ,   8.00000000 ,   4.82596206 ,   4.82596206 ,   55.7320797
0000001041,   6.00000000 ,   6.00000000 ,   8.00000000 ,   4.82596203 ,   4.82596203 ,   55.7320820
0000001042,   7.00000000 ,   6.00000000 ,   8.00000000 ,   4.82596194 ,   4.82596194 ,   55.7320885
0000001043,   8.00000000 ,   6.00000000 ,   8.00000000 ,   4.82596182 ,   4.82596182 ,   55.7320984
0000001044,   9.00000000 ,   6.00000000 ,   8.00000000 ,   4.82596172 ,   4.82596172 ,   55.7321082
0000001045,   10.0000000 ,   6.00000000 ,   8.00000000 ,   4.82596168 ,   4.82596168 ,   55.7321127
0000001046,   0.00000000 ,   7.00000000 ,   8.00000000 ,   4.62240085 ,   4.62240085 ,   55.0455454
0000001047,   1.00000000 ,   7.00000000 ,   8.00000000 ,   4.62240091 ,   4.62240091 ,   55.0455339
0000001048,   2.00000000 ,   7.00000000 ,   8.00000000 ,   4.62240105 ,   4.62240105 ,   55.0455094
0000001049,   3.00000000 ,   7.00000000 ,   8.00000000 ,   4.62240121 ,   4.62240121 ,   55.0454858
0000001050,   4.00000000 ,   7.00000000 ,   8.00000000 ,   4.62240134 ,   4.62240134 ,   55.0454706
0000001051,   5.00000000 ,   7.00000000 ,   8.00000000 ,   4.62240138 ,   4.62240138 ,   55.0454655
0000001052,   6.00000000 ,   7.00000000 ,   8.00000000 ,   4.62240134 ,   4.62240134 ,   55.0454706
0000001053,   7.00000000 ,   7.00000000 ,   8.00000000 ,   4.62240121 ,   4.62240121 ,   55.0454858
0000001054,   8.00000000 ,   7.00000000 ,   8.00000000 ,   4.62240105 ,   4.62240105 ,   55.0455094
0000001055,   9.00000000 ,   7.00000000 ,   8.00000000 ,   4.62240091 ,   4.62240091 ,   55.0455339
0000001056,   10.0000000 ,   7.00000000 ,   8.00000000 ,   4.62240085 ,   4.62240085 ,   55.0455454
0000001057,   0.00000000 ,   8.00000000 ,   8.00000000 ,   4.41678876 ,   4.41678876 ,   54.4044608
0000001058,   1.00000000 ,   8.00000000 ,   8.00000000 ,   4.41678884 ,   4.41678884 ,   54.4044339
0000001059,   2.00000000 ,   8.00000000 ,   8.00000000 ,   4.41678901 ,   4.41678901 ,   54.4043791
0000001060,   3.00000000 ,   8.00000000 ,   8.00000000 ,   4.41678921 ,   4.41678921 ,   54.4043283
0000001061,   4.00000000 ,   8.00000000 ,   8.00000000 ,   4.41678935 ,   4.41678935 ,   54.4042964
0000001062,   5.00000000 ,   8.00000000 ,   8.00000000 ,   4.41678940 ,   4.41678940 ,   54.4042860
0000001063,   6.00000000 ,   8.00000000 ,   8.00000000 ,   4.41678935 ,   4.41678935 ,   54.4042964
0000001064,   7.00000000 ,   8.00000000 ,   8.00000000 ,   4.41678921 ,   4.41678921 ,   54.4043283
0000001065,   8.00000000 ,   8.00000000 ,   8.00000000 ,   4.41678901 ,   4.41678901 ,   54.4043791
0000001066,   9.00000000 ,   8.00000000 ,   8.00000000 ,   4.41678884 ,   4.41678884 ,   54.4044339
0000001067,   10.0000000 ,   8.00000000 ,   8.00000000 ,   4.41678876 ,   4.41678876 ,   54.4044608
0000001068,   0.00000000 ,   9.00000000 ,   8.00000000 ,   4.20925069 ,   4.20925069 ,   53.8398371
0000001069,   1.00000000 ,   9.00000000 ,   8.00000000 ,   4.20925075 ,   4.20925075 ,   53.8397838
0000001070,   2.00000000 ,   9.00000000 ,   8.00000000 ,   4.20925091 ,   4.20925091 ,   53.8396794
0000001071,   3.00000000 ,   9.00000000 ,   8.00000000 ,   4.20925107 ,   4.20925107 ,   53.8395862
0000001072,   4.00000000 ,   9.00000000 ,   8.00000000 ,   4.20925118 ,   4.20925118 ,   53.8395292
0000001073,   5.00000000 ,   9.00000000 ,   8.00000000 ,   4.20925122 ,   4.20925122 ,   53.8395108
0000001074,   6.00000000 ,   9.00000000 ,   8.00000000 ,   4.20925118 ,   4.20925118 ,   53.8395292
0000001075,   7.00000000 ,   9.00000000 ,   8.00000000 ,   4.20925107 ,   4.20925107 ,   53.8395862
0000001076,   8.00000000 ,   9.00000000 ,   8.00000000 ,   4.20925091 ,   4.20925091 ,   53.8396794
0000001077,   9.00000000 ,   9.00000000 ,   8.00000000 ,   4.20925075 ,   4.20925075 ,   53.8397838
0000001078,   10.0000000 ,   9.00000000 ,   8.00000000 ,   4.20925069 ,   4.20925069 ,   53.8398371
0000001079,   0.00000000 ,   10.0000000 ,   8.00000000 ,   4.00000000 ,   4.00000000 ,   53.6144958
0000001080,   1.00000000 ,   10.0000000 ,   8.00000000 ,   4.00000000 ,   4.00000000 ,   53.6144254
0000001081,   2.00000000 ,   10.0000000 ,   8.00000000 ,   4.00000000 ,   4.00000000 ,   53.6142906
0000001082,   3.00000000 ,   10.0000000 ,   8.00000000 ,   4.00000000 ,   4.00000000 ,   53.6141719
0000001083,   4.00000000 ,   10.0000000 ,   8.00000000 ,   4.00000000 ,   4.00000000 ,   53.6141002
0000001084,   5.00000000 ,   10.0000000 ,   8.00000000 ,   4.00000000 ,   4.00000000 ,   53.6140771
0000001085,   6.00000000 ,   10.0000000 ,   8.00000000 ,   4.00000000 ,   4.00000000 ,   53.6141002
0000001086,   7.00000000 ,   10.0000000 ,   8.00000000 ,   4.00000000 ,   4.00000000 ,   53.6141719
0000001087,   8.00000000 ,   10.0000000 ,   8.00000000 ,   4.00000000 ,   4.00000000 ,   53.6142906
0000001088,   9.00000000 ,   10.0000000 ,   8.00000000 ,   4.00000000 ,   4.00000000 ,   53.6144254
0000001089,   10.0000000 ,   10.0000000 ,   8.00000000 ,   4.00000000 ,   4.00000000 ,   53.6144958
0000001090,   0.00000000 ,   0.00000000 ,   9.00000000 ,   6.00000000 ,   6.00000000 ,   57.7960208
0000001091,   1.00000000 ,   0.00000000 ,   9.00000000 ,   6.00000000 ,   6.00000000 ,   57.7960208
0000001092,   2.00000000 ,   0.00000000 ,   9.00000000 ,   6.00000000 ,   6.00000000 ,   57.7960208
0000001093,   3.00000000 ,   0.00000000 ,   9.00000000 ,   6.00000000 ,   6.00000000 ,   57.7960207
0000001094,   4.00000000 ,   0.00000000 ,   9.00000000 ,   6.00000000 ,   6.00000000 ,   57.7960207
0000001095,   5.00000000 ,   0.00000000 ,   9.00000000 ,   6.00000000 ,   6.00000000 ,   57.7960207
0000001096,   6.00000000 ,   0.00000000 ,   9.00000000 ,   6.00000000 ,   6.00000000 ,   57.7960207
0000001097,   7.00000000 ,   0.00000000 ,   9.00000000 ,   6.00000000 ,   6.00000000 ,   57.7960207
0000001098,   8.00000000 ,   0.00000000 ,   9.00000000 ,   6.00000000 ,   6.00000000 ,   57.7960208
0000001099,   9.00000000 ,   0.00000000 ,   9.00000000 ,   6.00000000 ,   6.00000000 ,   57.7960208
0000001100,   10.0000000 ,   0.00000000 ,   9.00000000 ,   6.00000000 ,   6.00000000 ,   57.7960208
0000001101,   0.00000000 ,   1.00000000 ,   9.00000000 ,   5.81627990 ,   5.81627990 ,   55.0001549
0000001102,   1.00000000 ,   1.00000000 ,   9.00000000 ,   5.81627990 ,   5.81627990 ,   55.0001549
0000001103,   2.00000000 ,   1.00000000 ,   9.00000000 ,   5.81627990 ,   5.81627990 ,   55.0001548
0000001104,   3.00000000 ,   1.00000000 ,   9.00000000 ,   5.81627991 ,   5.81627991 ,   55.0001548
0000001105,   4.00000000 ,   1.00000000 ,   9.00000000 ,   5.81627991 ,   5.81627991 ,   55.0001547
0000001106,   5.00000000 ,   1.00000000 ,   9.00000000 ,   5.81627991 ,   5.81627991 ,   55.0001547
0000001107,   6.00000000 ,   1.00000000 ,   9.00000000 ,   5.81627991 ,   5.81627991 ,   55.0001547
0000001108,   7.00000000 ,   1.00000000 ,   9.00000000 ,   5.81627991 ,   5.81627991 ,   55.0001548
0000001109,   8.00000000 ,   1.00000000 ,   9.00000000 ,   5.81627990 ,   5.81627990 ,   55.0001548
0000001110,   9.00000000 ,   1.00000000 ,   9.00000000 ,   5.81627990 ,   5.81627990 ,   55.0001549
0000001111,   10.0000000 ,   1.00000000 ,   9.00000000 ,   5.81627990 ,   5.81627990 ,   55.0001549
0000001112,   0.00000000 ,   2.00000000 ,   9.00000000 ,   5.62627485 ,   5.62627485 ,   52.7207696
0000001113,   1.00000000 ,   2.00000000 ,   9.00000000 ,   5.62627485 ,   5.62627485 ,   52.7207696
0000001114,   2.00000000 ,   2.00000000 ,   9.00000000 ,   5.62627485 ,   5.62627485 ,   52.7207695
0000001115,   3.00000000 ,   2.00000000 ,   9.00000000 ,   5.62627486 ,   5.62627486 ,   52.7207695
0000001116,   4.00000000 ,   2.00000000 ,   9.00000000 ,   5.62627486 ,   5.62627486 ,   52.7207694
0000001117,   5.00000000 ,   2.00000000 ,   9.00000000 ,   5.62627486 ,   5.62627486 ,   52.7207694
0000001118,   6.00000000 ,   2.00000000 ,   9.00000000 ,   5.62627486 ,   5.62627486 ,   52.7207694
0000001119,   7.00000000 ,   2.00000000 ,   9.00000000 ,   5.62627486 ,   5.62627486 ,   52.7207695
0000001120,   8.00000000 ,   2.00000000 ,   9.00000000 ,   5.62627485 ,   5.62627485 ,   52.7207695
0000001121,   9.00000000 ,   2.00000000 ,   9.00000000 ,   5.62627485 ,   5.62627485 ,   52.7207696
0000001122,   10.0000000 ,   2.00000000 ,   9.00000000 ,   5.62627485 ,   5.62627485 ,   52.7207696
0000001123,   0.00000000 ,   3.00000000 ,   9.00000000 ,   5.43172278 ,   5.43172278 ,   50.8418553
0000001124,   1.00000000 ,   3.00000000 ,   9.00000000 ,   5.43172278 ,   5.43172278 ,   50.8418552
0000001125,   2.00000000 ,   3.00000000 ,   9.00000000 ,   5.43172279 ,   5.43172279 ,   50.8418551
0000001126,   3.00000000 ,   3.00000000 ,   9.00000000 ,   5.43172280 ,   5.43172280 ,   50.8418550
0000001127,   4.00000000 ,   3.00000000 ,   9.00000000 ,   5.43172280 ,   5.43172280 ,   50.8418549
0000001128,   5.00000000 ,   3.00000000 ,   9.00000000 ,   5.43172281 ,   5.43172281 ,   50.8418549
0000001129,   6.00000000 ,   3.00000000 ,   9.00000000 ,   5.43172280 ,   5.43172280 ,   50.8418549
0000001130,   7.00000000 ,   3.00000000 ,   9.00000000 ,   5.43172280 ,   5.43172280 ,   50.8418550
0000001131,   8.00000000 ,   3.00000000 ,   9.00000000 ,   5.43172279 ,   5.43172279 ,   50.8418551
0000001132,   9.00000000 ,   3.00000000 ,   9.00000000 ,   5.43172278 ,   5.43172278 ,   50.8418552
0000001133,   10.0000000 ,   3.00000000 ,   9.00000000 ,   5.43172278 ,   5.43172278 ,   50.8418553
0000001134,   0.00000000 ,   4.00000000 ,   9.00000000 ,   5.23370968 ,   5.23370968 ,   49.2809709
0000001135,   1.00000000 ,   4.00000000 ,   9.00000000 ,   5.23370968 ,   5.23370968 ,   49.2809708
0000001136,   2.00000000 ,   4.00000000 ,   9.00000000 ,   5.23370969 ,   5.23370969 ,   49.2809706
0000001137,   3.00000000 ,   4.00000000 ,   9.00000000 ,   5.23370971 ,   5.23370971 ,   49.2809703
0000001138,   4.00000000 ,   4.00000000 ,   9.00000000 ,   5.23370972 ,   5.23370972 ,   49.2809701
0000001139,   5.00000000 ,   4.00000000 ,   9.00000000 ,   5.23370972 ,   5.23370972 ,   49.2809700
0000001140,   6.00000000 ,   4.00000000 ,   9.00000000 ,   5.23370972 ,   5.23370972 ,   49.2809701
0000001141,   7.00000000 ,   4.00000000 ,   9.00000000 ,   5.23370971 ,   5.23370971 ,   49.2809703
0000001142,   8.00000000 ,   4.00000000 ,   9.00000000 ,   5.23370969 ,   5.23370969 ,   49.2809706
0000001143,   9.00000000 ,   4.00000000 ,   9.00000000 ,   5.23370968 ,   5.23370968 ,   49.2809708
0000001144,   10.0000000 ,   4.00000000 ,   9.00000000 ,   5.23370968 ,   5.23370968 ,   49.2809709
0000001145,   0.00000000 ,   5.00000000 ,   9.00000000 ,   5.03294536 ,   5.03294536 ,   47.9765317
0000001146,   1.00000000 ,   5.00000000 ,   9.00000000 ,   5.03294537 ,   5.03294537 ,   47.9765315
0000001147,   2.00000000 ,   5.00000000 ,   9.00000000 ,   5.03294538 ,   5.03294538 ,   47.9765309
0000001148,   3.00000000 ,   5.00000000 ,   9.00000000 ,   5.03294540 ,   5.03294540 ,   47.9765302
0000001149,   4.00000000 ,   5.00000000 ,   9.00000000 ,   5.03294542 ,   5.03294542 ,   47.9765297
0000001150,   5.00000000 ,   5.00000000 ,   9.00000000 ,   5.03294543 ,   5.03294543 ,   47.9765296
0000001151,   6.00000000 ,   5.00000000 ,   9.00000000 ,   5.03294542 ,   5.03294542 ,   47.9765297
0000001152,   7.00000000 ,   5.00000000 ,   9.00000000 ,   5.03294540 ,   5.03294540 ,   47.9765302
0000001153,   8.00000000 ,   5.00000000 ,   9.00000000 ,   5.03294538 ,   5.03294538 ,   47.9765309
0000001154,   9.00000000 ,   5.00000000 ,   9.00000000 ,   5.03294537 ,   5.03294537 ,   47.9765315
0000001155,   10.0000000 ,   5.00000000 ,   9.00000000 ,   5.03294536 ,   5.03294536 ,   47.9765317
0000001156,   0.00000000 ,   6.00000000 ,   9.00000000 ,   4.82991163 ,   4.82991163 ,   46.8811628
0000001157,   1.00000000 ,   6.00000000 ,   9.00000000 ,   4.82991164 ,   4.82991164 ,   46.8811622
0000001158,   2.00000000 ,   6.00000000 ,   9.00000000 ,   4.82991166 ,   4.82991166 ,   46.8811606
0000001159,   3.00000000 ,   6.00000000 ,   9.00000000 ,   4.82991169 ,   4.82991169 ,   46.8811590
0000001160,   4.00000000 ,   6.00000000 ,   9.00000000 ,   4.82991171 ,   4.82991171 ,   46.8811580
0000001161,   5.00000000 ,   6.00000000 ,   9.00000000 ,   4.82991172 ,   4.82991172 ,   46.8811576
0000001162,   6.00000000 ,   6.00000000 ,   9.00000000 ,   4.82991171 ,   4.82991171 ,   46.8811580
0000001163,   7.00000000 ,   6.00000000 ,   9.00000000 ,   4.82991169 ,   4.82991169 ,   46.8811590
0000001164,   8.00000000 ,   6.00000000 ,   9.00000000 ,   4.82991166 ,   4.82991166 ,   46.8811606
0000001165,   9.00000000 ,   6.00000000 ,   9.00000000 ,   4.82991164 ,   4.82991164 ,   46.8811622
0000001166,   10.0000000 ,   6.00000000 ,   9.00000000 ,   4.82991163 ,   4.82991163 ,   46.8811628
0000001167,   0.00000000 ,   7.00000000 ,   9.00000000 ,   4.62493939 ,   4.62493939 ,   45.9579132
0000001168,   1.00000000 ,   7.00000000 ,   9.00000000 ,   4.62493940 ,   4.62493940 ,   45.9579115
0000001169,   2.00000000 ,   7.00000000 ,   9.00000000 ,   4.62493943 ,   4.62493943 ,   45.9579078
0000001170,   3.00000000 ,   7.00000000 ,   9.00000000 ,   4.62493947 ,   4.62493947 ,   45.9579041
0000001171,   4.00000000 ,   7.00000000 ,   9.00000000 ,   4.62493950 ,   4.62493950 ,   45.9579016
0000001172,   5.00000000 ,   7.00000000 ,   9.00000000 ,   4.62493951 ,   4.62493951 ,   45.9579008
0000001173,   6.00000000 ,   7.00000000 ,   9.00000000 ,   4.62493950 ,   4.62493950 ,   45.9579016
0000001174,   7.00000000 ,   7.00000000 ,   9.00000000 ,   4.62493947 ,   4.62493947 ,   45.9579041
0000001175,   8.00000000 ,   7.00000000 ,   9.00000000 ,   4.62493943 ,   4.62493943 ,   45.9579078
0000001176,   9.00000000 ,   7.00000000 ,   9.00000000 ,   4.62493940 ,   4.62493940 ,   45.9579115
0000001177,   10.0000000 ,   7.00000000 ,   9.00000000 ,   4.62493939 ,   4.62493939 ,   45.9579132
0000001178,   0.00000000 ,   8.00000000 ,   9.00000000 ,   4.41824074 ,   4.41824074 ,   45.1792032
0000001179,   1.00000000 ,   8.00000000 ,   9.00000000 ,   4.41824076 ,   4.41824076 ,   45.1791993
0000001180,   2.00000000 ,   8.00000000 ,   9.00000000 ,   4.41824079 ,   4.41824079 ,   45.1791911
0000001181,   3.00000000 ,   8.00000000 ,   9.00000000 ,   4.41824084 ,   4.41824084 ,   45.1791831
0000001182,   4.00000000 ,   8.00000000 ,   9.00000000 ,   4.41824087 ,   4.41824087 ,   45.1791779
0000001183,   5.00000000 ,   8.00000000 ,   9.00000000 ,   4.41824088 ,   4.41824088 ,   45.1791762
0000001184,   6.00000000 ,   8.00000000 ,   9.00000000 ,   4.41824087 ,   4.41824087 ,   45.1791779
0000001185,   7.00000000 ,   8.00000000 ,   9.00000000 ,   4.41824084 ,   4.41824084 ,   45.1791831
0000001186,   8.00000000 ,   8.00000000 ,   9.00000000 ,   4.41824079 ,   4.41824079 ,   45.1791911
0000001187,   9.00000000 ,   8.00000000 ,   9.00000000 ,   4.41824076 ,   4.41824076 ,   45.1791993
0000001188,   10.0000000 ,   8.00000000 ,   9.00000000 ,   4.41824074 ,   4.41824074 ,   45.1792032
0000001189,   0.00000000 ,   9.00000000 ,   9.00000000 ,   4.20990796 ,   4.20990796 ,   44.5386011
0000001190,   1.00000000 ,   9.00000000 ,   9.00000000 ,   4.20990797 ,   4.20990797 ,   44.5385936
0000001191,   2.00000000 ,   9.00000000 ,   9.00000000 ,   4.20990800 ,   4.20990800 ,   44.5385780
0000001192,   3.00000000 ,   9.00000000 ,   9.00000000 ,   4.20990804 ,   4.20990804 ,   44.5385634
0000001193,   4.00000000 ,   9.00000000 ,   9.00000000 ,   4.20990806 ,   4.20990806 ,   44.5385541
0000001194,   5.00000000 ,   9.00000000 ,   9.00000000 ,   4.20990807 ,   4.20990807 ,   44.5385510
0000001195,   6.00000000 ,   9.00000000 ,   9.00000000 ,   4.20990806 ,   4.20990806 ,   44.5385541
0000001196,   7.00000000 ,   9.00000000 ,   9.00000000 ,   4.20990804 ,   4.20990804 ,   44.5385634
0000001197,   8.00000000 ,   9.00000000 ,   9.00000000 ,   4.20990800 ,   4.20990800 ,   44.5385780
0000001198,   9.00000000 ,   9.00000000 ,   9.00000000 ,   4.20990797 ,   4.20990797 ,   44.5385936
0000001199,   10.0000000 ,   9.00000000 ,   9.00000000 ,   4.20990796 ,   4.20990796 ,   44.5386011
0000001200,   0.00000000 ,   10.0000000 ,   9.00000000 ,   4.00000000 ,   4.00000000 ,   44.2831151
0000001201,   1.00000000 ,   10.0000000 ,   9.00000000 ,   4.00000000 ,   4.00000000 ,   44.2831054
0000001202,   2.00000000 ,   10.0000000 ,   9.00000000 ,   4.00000000 ,   4.00000000 ,   44.2830854
0000001203,   3.00000000 ,   10.0000000 ,   9.00000000 ,   4.00000000 ,   4.00000000 ,   44.2830668
0000001204,   4.00000000 ,   10.0000000 ,   9.00000000 ,   4.00000000 ,   4.00000000 ,   44.2830550
0000001205,   5.00000000 ,   10.0000000 ,   9.00000000 ,   4.00000000 ,   4.00000000 ,   44.2830511
0000001206,   6.00000000 ,   10.0000000 ,   9.00000000 ,   4.00000000 ,   4.00000000 ,   44.2830550
0000001207,   7.00000000 ,   10.0000000 ,   9.00000000 ,   4.00000000 ,   4.00000000 ,   44.2830668
0000001208,   8.00000000 ,   10.0000000 ,   9.00000000 ,   4.00000000 ,   4.00000000 ,   44.2830854
0000001209,   9.00000000 ,   10.0000000 ,   9.00000000 ,   4.00000000 ,   4.00000000 ,   44.2831054
0000001210,   10.0000000 ,   10.0000000 ,   9.00000000 ,   4.00000000 ,   4.00000000 ,   44.2831151
0000001211,   0.00000000 ,   0.00000000 ,   10.0000000 ,   6.00000000 ,   6.00000000 ,   30.0000000
0000001212,   1.00000000 ,   0.00000000 ,   10.0000000 ,   6.00000000 ,   6.00000000 ,   30.0000000
0000001213,   2.00000000 ,   0.00000000 ,   10.0000000 ,   6.00000000 ,   6.00000000 ,   30.0000000
0000001214,   3.00000000 ,   0.00000000 ,   10.0000000 ,   6.00000000 ,   6.00000000 ,   30.0000000
0000001215,   4.00000000 ,   0.00000000 ,   10.0000000 ,   6.00000000 ,   6.00000000 ,   30.0000000
0000001216,   5.00000000 ,   0.00000000 ,   10.0000000 ,   6.00000000 ,   6.00000000 ,   30.0000000
0000001217,   6.00000000 ,   0.00000000 ,   10.0000000 ,   6.00000000 ,   6.00000000 ,   30.0000000
0000001218,   7.00000000 ,   0.00000000 ,   10.0000000 ,   6.00000000 ,   6.00000000 ,   30.0000000
0000001219,   8.00000000 ,   0.00000000 ,   10.0000000 ,   6.00000000 ,   6.00000000 ,   30.0000000
0000001220,   9.00000000 ,   0.00000000 ,   10.0000000 ,   6.00000000 ,   6.00000000 ,   30.0000000
0000001221,   10.0000000 ,   0.00000000 ,   10.0000000 ,   6.00000000 ,   6.00000000 ,   30.0000000
0000001222,   0.00000000 ,   1.00000000 ,   10.0000000 ,   5.80577669 ,   5.80577669 ,   30.0000000
0000001223,   1.00000000 ,   1.00000000 ,   10.0000000 ,   5.80577669 ,   5.80577669 ,   30.0000000
0000001224,   2.00000000 ,   1.00000000 ,   10.0000000 ,   5.80577669 ,   5.80577669 ,   30.0000000
0000001225,   3.00000000 ,   1.00000000 ,   10.0000000 ,   5.80577669 ,   5.80577669 ,   30.0000000
0000001226,   4.00000000 ,   1.00000000 ,   10.0000000 ,   5.80577669 ,   5.80577669 ,   30.0000000
0000001227,   5.00000000 ,   1.00000000 ,   10.0000000 ,   5.80577669 ,   5.80577669 ,   30.0000000
0000001228,   6.00000000 ,   1.00000000 ,   10.0000000 ,   5.80577669 ,   5.80577669 ,   30.0000000
0000001229,   7.00000000 ,   1.00000000 ,   10.0000000 ,   5.80577669 ,   5.80577669 ,   30.0000000
0000001230,   8.00000000 ,   1.00000000 ,   10.0000000 ,   5.80577669 ,   5.80577669 ,   30.0000000
0000001231,   9.00000000 ,   1.00000000 ,   10.0000000 ,   5.80577669 ,   5.80577669 ,   30.0000000
0000001232,   10.0000000 ,   1.00000000 ,   10.0000000 ,   5.80577669 ,   5.80577669 ,   30.0000000
0000001233,   0.00000000 ,   2.00000000 ,   10.0000000 ,   5.61129318 ,   5.61129318 ,   30.0000000
0000001234,   1.00000000 ,   2.00000000 ,   10.0000000 ,   5.61129318 ,   5.61129318 ,   30.0000000
0000001235,   2.00000000 ,   2.00000000 ,   10.0000000 ,   5.61129319 ,   5.61129319 ,   30.0000000
0000001236,   3.00000000 ,   2.00000000 ,   10.0000000 ,   5.61129319 ,   5.61129319 ,   30.0000000
0000001237,   4.00000000 ,   2.00000000 ,   10.0000000 ,   5.61129319 ,   5.61129319 ,   30.0000000
0000001238,   5.00000000 ,   2.00000000 ,   10.0000000 ,   5.61129319 ,   5.61129319 ,   30.0000000
0000001239,   6.00000000 ,   2.00000000 ,   10.0000000 ,   5.61129319 ,   5.61129319 ,   30.0000000
0000001240,   7.00000000 ,   2.00000000 ,   10.0000000 ,   5.61129319 ,   5.61129319 ,   30.0000000
0000001241,   8.00000000 ,   2.00000000 ,   10.0000000 ,   5.61129319 ,   5.61129319 ,   30.0000000
0000001242,   9.00000000 ,   2.00000000 ,   10.0000000 ,   5.61129318 ,   5.61129318 ,   30.0000000
0000001243,   10.0000000 ,   2.00000000 ,   10.0000000 ,   5.61129318 ,   5.61129318 ,   30.0000000
0000001244,   0.00000000 ,   3.00000000 ,   10.0000000 ,   5.41520494 ,   5.41520494 ,   30.0000000
0000001245,   1.00000000 ,   3.00000000 ,   10.0000000 ,   5.41520494 ,   5.41520494 ,   30.0000000
0000001246,   2.00000000 ,   3.00000000 ,   10.0000000 ,   5.41520495 ,   5.41520495 ,   30.0000000
0000001247,   3.00000000 ,   3.00000000 ,   10.0000000 ,   5.41520495 ,   5.41520495 ,   30.0000000
0000001248,   4.00000000 ,   3.00000000 ,   10.0000000 ,   5.41520496 ,   5.41520496 ,   30.0000000
0000001249,   5.00000000 ,   3.00000000 ,   10.0000000 ,   5.41520496 ,   5.41520496 ,   30.0000000
0000001250,   6.00000000 ,   3.00000000 ,   10.0000000 ,   5.41520496 ,   5.41520496 ,   30.0000000
0000001251,   7.00000000 ,   3.00000000 ,   10.0000000 ,   5.41520495 ,   5.41520495 ,   30.0000000
0000001252,   8.00000000 ,   3.00000000 ,   10.0000000 ,   5.41520495 ,   5.41520495 ,   30.0000000
0000001253,   9.00000000 ,   3.00000000 ,   10.0000000 ,   5.41520494 ,   5.41520494 ,   30.0000000
0000001254,   10.0000000 ,   3.00000000 ,   10.0000000 ,   5.41520494 ,   5.41520494 ,   30.0000000
0000001255,   0.00000000 ,   4.00000000 ,   10.0000000 ,   5.21710861 ,   5.21710861 ,   30.0000000
0000001256,   1.00000000 ,   4.00000000 ,   10.0000000 ,   5.21710861 ,   5.21710861 ,   30.0000000
0000001257,   2.00000000 ,   4.00000000 ,   10.0000000 ,   5.21710862 ,   5.21710862 ,   30.0000000
0000001258,   3.00000000 ,   4.00000000 ,   10.0000000 ,   5.21710862 ,   5.21710862 ,   30.0000000
0000001259,   4.00000000 ,   4.00000000 ,   10.0000000 ,   5.21710863 ,   5.21710863 ,   30.0000000
0000001260,   5.00000000 ,   4.00000000 ,   10.0000000 ,   5.21710863 ,   5.21710863 ,   30.0000000
0000001261,   6.00000000 ,   4.00000000 ,   10.0000000 ,   5.21710863 ,   5.21710863 ,   30.0000000
0000001262,   7.00000000 ,   4.00000000 ,   10.0000000 ,   5.21710862 ,   5.21710862 ,   30.0000000
0000001263,   8.00000000 ,   4.00000000 ,   10.0000000 ,   5.21710862 ,   5.21710862 ,   30.0000000
0000001264,   9.00000000 ,   4.00000000 ,   10.0000000 ,   5.21710861 ,   5.21710861 ,   30.0000000
0000001265,   10.0000000 ,   4.00000000 ,   10.0000000 ,   5.21710861 ,   5.21710861 ,   30.0000000
0000001266,   0.00000000 ,   5.00000000 ,   10.0000000 ,   5.01703041 ,   5.01703041 ,   30.0000000
0000001267,   1.00000000 ,   5.00000000 ,   10.0000000 ,   5.01703041 ,   5.01703041 ,   30.0000000
0000001268,   2.00000000 ,   5.00000000 ,   10.0000000 ,   5.01703042 ,   5.01703042 ,   30.0000000
0000001269,   3.00000000 ,   5.00000000 ,   10.0000000 ,   5.01703043 ,   5.01703043 ,   30.0000000
0000001270,   4.00000000 ,   5.00000000 ,   10.0000000 ,   5.01703043 ,   5.01703043 ,   30.0000000
0000001271,   5.00000000 ,   5.00000000 ,   10.0000000 ,   5.01703043 ,   5.01703043 ,   30.0000000
0000001272,   6.00000000 ,   5.00000000 ,   10.0000000 ,   5.01703043 ,   5.01703043 ,   30.0000000
0000001273,   7.00000000 ,   5.00000000 ,   10.0000000 ,   5.01703043 ,   5.01703043 ,   30.0000000
0000001274,   8.00000000 ,   5.00000000 ,   10.0000000 ,   5.01703042 ,   5.01703042 ,   30.0000000
0000001275,   9.00000000 ,   5.00000000 ,   10.0000000 ,   5.01703041 ,   5.01703041 ,   30.0000000
0000001276,   10.0000000 ,   5.00000000 ,   10.0000000 ,   5.01703041 ,   5.01703041 ,   30.0000000
0000001277,   0.00000000 ,   6.00000000 ,   10.0000000 ,   4.81520421 ,   4.81520421 ,   30.0000000
0000001278,   1.00000000 ,   6.00000000 ,   10.0000000 ,   4.81520421 ,   4.81520421 ,   30.0000000
0000001279,   2.00000000 ,   6.00000000 ,   10.0000000 ,   4.81520422 ,   4.81520422 ,   30.0000000
0000001280,   3.00000000 ,   6.00000000 ,   10.0000000 ,   4.81520423 ,   4.81520423 ,   30.0000000
0000001281,   4.00000000 ,   6.00000000 ,   10.0000000 ,   4.81520424 ,   4.81520424 ,   30.0000000
0000001282,   5.00000000 ,   6.00000000 ,   10.0000000 ,   4.81520425 ,   4.81520425 ,   30.0000000
0000001283,   6.00000000 ,   6.00000000 ,   10.0000000 ,   4.81520424 ,   4.81520424 ,   30.0000000
0000001284,   7.00000000 ,   6.00000000 ,   10.0000000 ,   4.81520423 ,   4.81520423 ,   30.0000000
0000001285,   8.00000000 ,   6.00000000 ,   10.0000000 ,   4.81520422 ,   4.81520422 ,   30.0000000
0000001286,   9.00000000 ,   6.00000000 ,   10.0000000 ,   4.81520421 ,   4.81520421 ,   30.0000000
0000001287,   10.0000000 ,   6.00000000 ,   10.0000000 ,   4.81520421 ,   4.81520421 ,   30.0000000
0000001288,   0.00000000 ,   7.00000000 ,   10.0000000 ,   4.61199312 ,   4.61199312 ,   30.0000000
0000001289,   1.00000000 ,   7.00000000 ,   10.0000000 ,   4.61199312 ,   4.61199312 ,   30.0000000
0000001290,   2.00000000 ,   7.00000000 ,   10.0000000 ,   4.61199313 ,   4.61199313 ,   30.0000000
0000001291,   3.00000000 ,   7.00000000 ,   10.0000000 ,   4.61199314 ,   4.61199314 ,   30.0000000
0000001292,   4.00000000 ,   7.00000000 ,   10.0000000 ,   4.61199315 ,   4.61199315 ,   30.0000000
0000001293,   5.00000000 ,   7.00000000 ,   10.0000000 ,   4.61199315 ,   4.61199315 ,   30.0000000
0000001294,   6.00000000 ,   7.00000000 ,   10.0000000 ,   4.61199315 ,   4.61199315 ,   30.0000000
0000001295,   7.00000000 ,   7.00000000 ,   10.0000000 ,   4.61199314 ,   4.61199314 ,   30.0000000
0000001296,   8.00000000 ,   7.00000000 ,   10.0000000 ,   4.61199313 ,   4.61199313 ,   30.0000000
0000001297,   9.00000000 ,   7.00000000 ,   10.0000000 ,   4.61199312 ,   4.61199312 ,   30.0000000
0000001298,   10.0000000 ,   7.00000000 ,   10.0000000 ,   4.61199312 ,   4.61199312 ,   30.0000000
0000001299,   0.00000000 ,   8.00000000 ,   10.0000000 ,   4.40789451 ,   4.40789451 ,   30.0000000
0000001300,   1.00000000 ,   8.00000000 ,   10.0000000 ,   4.40789451 ,   4.40789451 ,   30.0000000
0000001301,   2.00000000 ,   8.00000000 ,   10.0000000 ,   4.40789452 ,   4.40789452 ,   30.0000000
0000001302,   3.00000000 ,   8.00000000 ,   10.0000000 ,   4.40789453 ,   4.40789453 ,   30.0000000
0000001303,   4.00000000 ,   8.00000000 ,   10.0000000 ,   4.40789454 ,   4.40789454 ,   30.0000000
0000001304,   5.00000000 ,   8.00000000 ,   10.0000000 ,   4.40789454 ,   4.40789454 ,   30.0000000
0000001305,   6.00000000 ,   8.00000000 ,   10.0000000 ,   4.40789454 ,   4.40789454 ,   30.0000000
0000001306,   7.00000000 ,   8.00000000 ,   10.0000000 ,   4.40789453 ,   4.40789453 ,   30.0000000
0000001307,   8.00000000 ,   8.00000000 ,   10.0000000 ,   4.40789452 ,   4.40789452 ,   30.0000000
0000001308,   9.00000000 ,   8.00000000 ,   10.0000000 ,   4.40789451 ,   4.40789451 ,   30.0000000
0000001309,   10.0000000 ,   8.00000000 ,   10.0000000 ,   4.40789451 ,   4.40789451 ,   30.0000000
0000001310,   0.00000000 ,   9.00000000 ,   10.0000000 ,   4.20361364 ,   4.20361364 ,   30.0000000
0000001311,   1.00000000 ,   9.00000000 ,   10.0000000 ,   4.20361364 ,   4.20361364 ,   30.0000000
0000001312,   2.00000000 ,   9.00000000 ,   10.0000000 ,   4.20361365 ,   4.20361365 ,   30.0000000
0000001313,   3.00000000 ,   9.00000000 ,   10.0000000 ,   4.20361365 ,   4.20361365 ,   30.0000000
0000001314,   4.00000000 ,   9.00000000 ,   10.0000000 ,   4.20361366 ,   4.20361366 ,   30.0000000
0000001315,   5.00000000 ,   9.00000000 ,   10.0000000 ,   4.20361366 ,   4.20361366 ,   30.0000000
0000001316,   6.00000000 ,   9.00000000 ,   10.0000000 ,   4.20361366 ,   4.20361366 ,   30.0000000
0000001317,   7.00000000 ,   9.00000000 ,   10.0000000 ,   4.20361365 ,   4.20361365 ,   30.0000000
0000001318,   8.00000000 ,   9.00000000 ,   10.0000000 ,   4.20361365 ,   4.20361365 ,   30.0000000
0000001319,   9.00000000 ,   9.00000000 ,   10.0000000 ,   4.20361364 ,   4.20361364 ,   30.0000000
0000001320,   10.0000000 ,   9.00000000 ,   10.0000000 ,   4.20361364 ,   4.20361364 ,   30.0000000
0000001321,   0.00000000 ,   10.0000000 ,   10.0000000 ,   4.00000000 ,   4.00000000 ,   30.0000000
0000001322,   1.00000000 ,   10.0000000 ,   10.0000000 ,   4.00000000 ,   4.00000000 ,   30.0000000
0000001323,   2.00000000 ,   10.0000000 ,   10.0000000 ,   4.00000000 ,   4.00000000 ,   30.0000000
0000001324,   3.00000000 ,   10.0000000 ,   10.0000000 ,   4.00000000 ,   4.00000000 ,   30.0000000
0000001325,   4.00000000 ,   10.0000000 ,   10.0000000 ,   4.00000000 ,   4.00000000 ,   30.0000000
0000001326,   5.00000000 ,   10.0000000 ,   10.0000000 ,   4.00000000 ,   4.00000000 ,   30.0000000
0000001327,   6.00000000 ,   10.0000000 ,   10.0000000 ,   4.00000000 ,   4.00000000 ,   30.0000000
0000001328,   7.00000000 ,   10.0000000 ,   10.0000000 ,   4.00000000 ,   4.00000000 ,   30.0000000
0000001329,   8.00000000 ,   10.0000000 ,   10.0000000 ,   4.00000000 ,   4.00000000 ,   30.0000000
0000001330,   9.00000000 ,   10.0000000 ,   10.0000000 ,   4.00000000 ,   4.00000000 ,   30.0000000
0000001331,   10.0000000 ,   10.0000000 ,   10.0000000 ,   4.00000000 ,   4.00000000 ,   30.0000000
