node, X coordinate (m), Y coordinate (m), Z coordinate (m), Liquid Pressure (MPa), Vapor Pressure (MPa), Temperature (deg C)
0000000001,   0.00000000 ,   0.00000000 ,   0.00000000 ,   6.00000000 ,   6.00000000 ,   80.0000000
0000000002,   1.00000000 ,   0.00000000 ,   0.00000000 ,   6.00000000 ,   6.00000000 ,   80.0000000
0000000003,   2.00000000 ,   0.00000000 ,   0.00000000 ,   6.00000000 ,   6.00000000 ,   80.0000000
0000000004,   3.00000000 ,   0.00000000 ,   0.00000000 ,   6.00000000 ,   6.00000000 ,   80.0000000
0000000005,   4.00000000 ,   0.00000000 ,   0.00000000 ,   6.00000000 ,   6.00000000 ,   80.0000000
0000000006,   5.00000000 ,   0.00000000 ,   0.00000000 ,   6.00000000 ,   6.00000000 ,   80.0000000
0000000007,   6.00000000 ,   0.00000000 ,   0.00000000 ,   6.00000000 ,   6.00000000 ,   80.0000000
0000000008,   7.00000000 ,   0.00000000 ,   0.00000000 ,   6.00000000 ,   6.00000000 ,   80.0000000
0000000009,   8.00000000 ,   0.00000000 ,   0.00000000 ,   6.00000000 ,   6.00000000 ,   80.0000000
0000000010,   9.00000000 ,   0.00000000 ,   0.00000000 ,   6.00000000 ,   6.00000000 ,   80.0000000
0000000011,   10.0000000 ,   0.00000000 ,   0.00000000 ,   6.00000000 ,   6.00000000 ,   80.0000000
0000000012,   0.00000000 ,   1.00000000 ,   0.00000000 ,   5.79900225 ,   5.79900225 ,   80.0000000
0000000013,   1.00000000 ,   1.00000000 ,   0.00000000 ,   5.79900279 ,   5.79900279 ,   80.0000000
0000000014,   2.00000000 ,   1.00000000 ,   0.00000000 ,   5.79900420 ,   5.79900420 ,   80.0000000
0000000015,   3.00000000 ,   1.00000000 ,   0.00000000 ,   5.79900592 ,   5.79900592 ,   80.0000000
0000000016,   4.00000000 ,   1.00000000 ,   0.00000000 ,   5.79900729 ,   5.79900729 ,   80.0000000
0000000017,   5.00000000 ,   1.00000000 ,   0.00000000 ,   5.79900781 ,   5.79900781 ,   80.0000000
0000000018,   6.00000000 ,   1.00000000 ,   0.00000000 ,   5.79900729 ,   5.79900729 ,   80.0000000
0000000019,   7.00000000 ,   1.00000000 ,   0.00000000 ,   5.79900592 ,   5.79900592 ,   80.0000000
0000000020,   8.00000000 ,   1.00000000 ,   0.00000000 ,   5.79900420 ,   5.79900420 ,   80.0000000
0000000021,   9.00000000 ,   1.00000000 ,   0.00000000 ,   5.79900279 ,   5.79900279 ,   80.0000000
0000000022,   10.0000000 ,   1.00000000 ,   0.00000000 ,   5.79900225 ,   5.79900225 ,   80.0000000
0000000023,   0.00000000 ,   2.00000000 ,   0.00000000 ,   5.59806170 ,   5.59806170 ,   80.0000000
0000000024,   1.00000000 ,   2.00000000 ,   0.00000000 ,   5.59806295 ,   5.59806295 ,   80.0000000
0000000025,   2.00000000 ,   2.00000000 ,   0.00000000 ,   5.59806617 ,   5.59806617 ,   80.0000000
0000000026,   3.00000000 ,   2.00000000 ,   0.00000000 ,   5.59807006 ,   5.59807006 ,   80.0000000
0000000027,   4.00000000 ,   2.00000000 ,   0.00000000 ,   5.59807314 ,   5.59807314 ,   80.0000000
0000000028,   5.00000000 ,   2.00000000 ,   0.00000000 ,   5.59807431 ,   5.59807431 ,   80.0000000
0000000029,   6.00000000 ,   2.00000000 ,   0.00000000 ,   5.59807314 ,   5.59807314 ,   80.0000000
0000000030,   7.00000000 ,   2.00000000 ,   0.00000000 ,   5.59807006 ,   5.59807006 ,   80.0000000
0000000031,   8.00000000 ,   2.00000000 ,   0.00000000 ,   5.59806617 ,   5.59806617 ,   80.0000000
0000000032,   9.00000000 ,   2.00000000 ,   0.00000000 ,   5.59806295 ,   5.59806295 ,   80.0000000
0000000033,   10.0000000 ,   2.00000000 ,   0.00000000 ,   5.59806170 ,   5.59806170 ,   80.0000000
0000000034,   0.00000000 ,   3.00000000 ,   0.00000000 ,   5.39771244 ,   5.39771244 ,   80.0000000
0000000035,   1.00000000 ,   3.00000000 ,   0.00000000 ,   5.39771475 ,   5.39771475 ,   80.0000000
0000000036,   2.00000000 ,   3.00000000 ,   0.00000000 ,   5.39772066 ,   5.39772066 ,   80.0000000
0000000037,   3.00000000 ,   3.00000000 ,   0.00000000 ,   5.39772772 ,   5.39772772 ,   80.0000000
0000000038,   4.00000000 ,   3.00000000 ,   0.00000000 ,   5.39773327 ,   5.39773327 ,   80.0000000
0000000039,   5.00000000 ,   3.00000000 ,   0.00000000 ,   5.39773536 ,   5.39773536 ,   80.0000000
0000000040,   6.00000000 ,   3.00000000 ,   0.00000000 ,   5.39773327 ,   5.39773327 ,   80.0000000
0000000041,   7.00000000 ,   3.00000000 ,   0.00000000 ,   5.39772772 ,   5.39772772 ,   80.0000000
0000000042,   8.00000000 ,   3.00000000 ,   0.00000000 ,   5.39772066 ,   5.39772066 ,   80.0000000
0000000043,   9.00000000 ,   3.00000000 ,   0.00000000 ,   5.39771475 ,   5.39771475 ,   80.0000000
0000000044,   10.0000000 ,   3.00000000 ,   0.00000000 ,   5.39771244 ,   5.39771244 ,   80.0000000
0000000045,   0.00000000 ,   4.00000000 ,   0.00000000 ,   5.19796242 ,   5.19796242 ,   80.0000000
0000000046,   1.00000000 ,   4.00000000 ,   0.00000000 ,   5.19796643 ,   5.19796643 ,   80.0000000
0000000047,   2.00000000 ,   4.00000000 ,   0.00000000 ,   5.19797653 ,   5.19797653 ,   80.0000000
0000000048,   3.00000000 ,   4.00000000 ,   0.00000000 ,   5.19798839 ,   5.19798839 ,   80.0000000
0000000049,   4.00000000 ,   4.00000000 ,   0.00000000 ,   5.19799757 ,   5.19799757 ,   80.0000000
0000000050,   5.00000000 ,   4.00000000 ,   0.00000000 ,   5.19800098 ,   5.19800098 ,   80.0000000
0000000051,   6.00000000 ,   4.00000000 ,   0.00000000 ,   5.19799757 ,   5.19799757 ,   80.0000000
0000000052,   7.00000000 ,   4.00000000 ,   0.00000000 ,   5.19798839 ,   5.19798839 ,   80.0000000
0000000053,   8.00000000 ,   4.00000000 ,   0.00000000 ,   5.19797653 ,   5.19797653 ,   80.0000000
0000000054,   9.00000000 ,   4.00000000 ,   0.00000000 ,   5.19796643 ,   5.19796643 ,   80.0000000
0000000055,   10.0000000 ,   4.00000000 ,   0.00000000 ,   5.19796242 ,   5.19796242 ,   80.0000000
0000000056,   0.00000000 ,   5.00000000 ,   0.00000000 ,   4.99863949 ,   4.99863949 ,   80.0000000
0000000057,   1.00000000 ,   5.00000000 ,   0.00000000 ,   4.99864624 ,   4.99864624 ,   80.0000000
0000000058,   2.00000000 ,   5.00000000 ,   0.00000000 ,   4.99866278 ,   4.99866278 ,   80.0000000
0000000059,   3.00000000 ,   5.00000000 ,   0.00000000 ,   4.99868165 ,   4.99868165 ,   80.0000000
0000000060,   4.00000000 ,   5.00000000 ,   0.00000000 ,   4.99869592 ,   4.99869592 ,   80.0000000
0000000061,   5.00000000 ,   5.00000000 ,   0.00000000 ,   4.99870116 ,   4.99870116 ,   80.0000000
0000000062,   6.00000000 ,   5.00000000 ,   0.00000000 ,   4.99869592 ,   4.99869592 ,   80.0000000
0000000063,   7.00000000 ,   5.00000000 ,   0.00000000 ,   4.99868165 ,   4.99868165 ,   80.0000000
0000000064,   8.00000000 ,   5.00000000 ,   0.00000000 ,   4.99866278 ,   4.99866278 ,   80.0000000
0000000065,   9.00000000 ,   5.00000000 ,   0.00000000 ,   4.99864624 ,   4.99864624 ,   80.0000000
0000000066,   10.0000000 ,   5.00000000 ,   0.00000000 ,   4.99863949 ,   4.99863949 ,   80.0000000
0000000067,   0.00000000 ,   6.00000000 ,   0.00000000 ,   4.79951929 ,   4.79951929 ,   80.0000000
0000000068,   1.00000000 ,   6.00000000 ,   0.00000000 ,   4.79953032 ,   4.79953032 ,   80.0000000
0000000069,   2.00000000 ,   6.00000000 ,   0.00000000 ,   4.79955610 ,   4.79955610 ,   80.0000000
0000000070,   3.00000000 ,   6.00000000 ,   0.00000000 ,   4.79958422 ,   4.79958422 ,   80.0000000
0000000071,   4.00000000 ,   6.00000000 ,   0.00000000 ,   4.79960477 ,   4.79960477 ,   80.0000000
0000000072,   5.00000000 ,   6.00000000 ,   0.00000000 ,   4.79961218 ,   4.79961218 ,   80.0000000
0000000073,   6.00000000 ,   6.00000000 ,   0.00000000 ,   4.79960477 ,   4.79960477 ,   80.0000000
0000000074,   7.00000000 ,   6.00000000 ,   0.00000000 ,   4.79958422 ,   4.79958422 ,   80.0000000
0000000075,   8.00000000 ,   6.00000000 ,   0.00000000 ,   4.79955610 ,   4.79955610 ,   80.0000000
0000000076,   9.00000000 ,   6.00000000 ,   0.00000000 ,   4.79953032 ,   4.79953032 ,   80.0000000
0000000077,   10.0000000 ,   6.00000000 ,   0.00000000 ,   4.79951929 ,   4.79951929 ,   80.0000000
0000000078,   0.00000000 ,   7.00000000 ,   0.00000000 ,   4.60036442 ,   4.60036442 ,   80.0000000
0000000079,   1.00000000 ,   7.00000000 ,   0.00000000 ,   4.60038197 ,   4.60038197 ,   80.0000000
0000000080,   2.00000000 ,   7.00000000 ,   0.00000000 ,   4.60041966 ,   4.60041966 ,   80.0000000
0000000081,   3.00000000 ,   7.00000000 ,   0.00000000 ,   4.60045807 ,   4.60045807 ,   80.0000000
0000000082,   4.00000000 ,   7.00000000 ,   0.00000000 ,   4.60048480 ,   4.60048480 ,   80.0000000
0000000083,   5.00000000 ,   7.00000000 ,   0.00000000 ,   4.60049422 ,   4.60049422 ,   80.0000000
0000000084,   6.00000000 ,   7.00000000 ,   0.00000000 ,   4.60048480 ,   4.60048480 ,   80.0000000
0000000085,   7.00000000 ,   7.00000000 ,   0.00000000 ,   4.60045807 ,   4.60045807 ,   80.0000000
0000000086,   8.00000000 ,   7.00000000 ,   0.00000000 ,   4.60041966 ,   4.60041966 ,   80.0000000
0000000087,   9.00000000 ,   7.00000000 ,   0.00000000 ,   4.60038197 ,   4.60038197 ,   80.0000000
0000000088,   10.0000000 ,   7.00000000 ,   0.00000000 ,   4.60036442 ,   4.60036442 ,   80.0000000
0000000089,   0.00000000 ,   8.00000000 ,   0.00000000 ,   4.40093498 ,   4.40093498 ,   80.0000000
0000000090,   1.00000000 ,   8.00000000 ,   0.00000000 ,   4.40096062 ,   4.40096062 ,   80.0000000
0000000091,   2.00000000 ,   8.00000000 ,   0.00000000 ,   4.40100855 ,   4.40100855 ,   80.0000000
0000000092,   3.00000000 ,   8.00000000 ,   0.00000000 ,   4.40105286 ,   4.40105286 ,   80.0000000
0000000093,   4.00000000 ,   8.00000000 ,   0.00000000 ,   4.40108178 ,   4.40108178 ,   80.0000000
0000000094,   5.00000000 ,   8.00000000 ,   0.00000000 ,   4.40109164 ,   4.40109164 ,   80.0000000
0000000095,   6.00000000 ,   8.00000000 ,   0.00000000 ,   4.40108178 ,   4.40108178 ,   80.0000000
0000000096,   7.00000000 ,   8.00000000 ,   0.00000000 ,   4.40105286 ,   4.40105286 ,   80.0000000
0000000097,   8.00000000 ,   8.00000000 ,   0.00000000 ,   4.40100855 ,   4.40100855 ,   80.0000000
0000000098,   9.00000000 ,   8.00000000 ,   0.00000000 ,   4.40096062 ,   4.40096062 ,   80.0000000
0000000099,   10.0000000 ,   8.00000000 ,   0.00000000 ,   4.40093498 ,   4.40093498 ,   80.0000000
0000000100,   0.00000000 ,   9.00000000 ,   0.00000000 ,   4.20094831 ,   4.20094831 ,   80.0000000
0000000101,   1.00000000 ,   9.00000000 ,   0.00000000 ,   4.20097619 ,   4.20097619 ,   80.0000000
0000000102,   2.00000000 ,   9.00000000 ,   0.00000000 ,   4.20101863 ,   4.20101863 ,   80.0000000
0000000103,   3.00000000 ,   9.00000000 ,   0.00000000 ,   4.20105324 ,   4.20105324 ,   80.0000000
0000000104,   4.00000000 ,   9.00000000 ,   0.00000000 ,   4.20107415 ,   4.20107415 ,   80.0000000
0000000105,   5.00000000 ,   9.00000000 ,   0.00000000 ,   4.20108103 ,   4.20108103 ,   80.0000000
0000000106,   6.00000000 ,   9.00000000 ,   0.00000000 ,   4.20107415 ,   4.20107415 ,   80.0000000
0000000107,   7.00000000 ,   9.00000000 ,   0.00000000 ,   4.20105324 ,   4.20105324 ,   80.0000000
0000000108,   8.00000000 ,   9.00000000 ,   0.00000000 ,   4.20101863 ,   4.20101863 ,   80.0000000
0000000109,   9.00000000 ,   9.00000000 ,   0.00000000 ,   4.20097619 ,   4.20097619 ,   80.0000000
0000000110,   10.0000000 ,   9.00000000 ,   0.00000000 ,   4.20094831 ,   4.20094831 ,   80.0000000
0000000111,   0.00000000 ,   10.0000000 ,   0.00000000 ,   4.00000000 ,   4.00000000 ,   80.0000000
0000000112,   1.00000000 ,   10.0000000 ,   0.00000000 ,   4.00000000 ,   4.00000000 ,   80.0000000
0000000113,   2.00000000 ,   10.0000000 ,   0.00000000 ,   4.00000000 ,   4.00000000 ,   80.0000000
0000000114,   3.00000000 ,   10.0000000 ,   0.00000000 ,   4.00000000 ,   4.00000000 ,   80.0000000
0000000115,   4.00000000 ,   10.0000000 ,   0.00000000 ,   4.00000000 ,   4.00000000 ,   80.0000000
0000000116,   5.00000000 ,   10.0000000 ,   0.00000000 ,   4.00000000 ,   4.00000000 ,   80.0000000
0000000117,   6.00000000 ,   10.0000000 ,   0.00000000 ,   4.00000000 ,   4.00000000 ,   80.0000000
0000000118,   7.00000000 ,   10.0000000 ,   0.00000000 ,   4.00000000 ,   4.00000000 ,   80.0000000
0000000119,   8.00000000 ,   10.0000000 ,   0.00000000 ,   4.00000000 ,   4.00000000 ,   80.0000000
0000000120,   9.00000000 ,   10.0000000 ,   0.00000000 ,   4.00000000 ,   4.00000000 ,   80.0000000
0000000121,   10.0000000 ,   10.0000000 ,   0.00000000 ,   4.00000000 ,   4.00000000 ,   80.0000000
0000000122,   0.00000000 ,   0.00000000 ,   1.00000000 ,   6.00000000 ,   6.00000000 ,   67.5315052
0000000123,   1.00000000 ,   0.00000000 ,   1.00000000 ,   6.00000000 ,   6.00000000 ,   67.5315165
0000000124,   2.00000000 ,   0.00000000 ,   1.00000000 ,   6.00000000 ,   6.00000000 ,   67.5315459
0000000125,   3.00000000 ,   0.00000000 ,   1.00000000 ,   6.00000000 ,   6.00000000 ,   67.5315819
0000000126,   4.00000000 ,   0.00000000 ,   1.00000000 ,   6.00000000 ,   6.00000000 ,   67.5316107
0000000127,   5.00000000 ,   0.00000000 ,   1.00000000 ,   6.00000000 ,   6.00000000 ,   67.5316216
0000000128,   6.00000000 ,   0.00000000 ,   1.00000000 ,   6.00000000 ,   6.00000000 ,   67.5316107
0000000129,   7.00000000 ,   0.00000000 ,   1.00000000 ,   6.00000000 ,   6.00000000 ,   67.5315819
0000000130,   8.00000000 ,   0.00000000 ,   1.00000000 ,   6.00000000 ,   6.00000000 ,   67.5315459
0000000131,   9.00000000 ,   0.00000000 ,   1.00000000 ,   6.00000000 ,   6.00000000 ,   67.5315165
0000000132,   10.0000000 ,   0.00000000 ,   1.00000000 ,   6.00000000 ,   6.00000000 ,   67.5315052
0000000133,   0.00000000 ,   1.00000000 ,   1.00000000 ,   5.78915705 ,   5.78915705 ,   70.4858791
0000000134,   1.00000000 ,   1.00000000 ,   1.00000000 ,   5.78915791 ,   5.78915791 ,   70.4858842
0000000135,   2.00000000 ,   1.00000000 ,   1.00000000 ,   5.78916014 ,   5.78916014 ,   70.4858983
0000000136,   3.00000000 ,   1.00000000 ,   1.00000000 ,   5.78916283 ,   5.78916283 ,   70.4859165
0000000137,   4.00000000 ,   1.00000000 ,   1.00000000 ,   5.78916495 ,   5.78916495 ,   70.4859317
0000000138,   5.00000000 ,   1.00000000 ,   1.00000000 ,   5.78916575 ,   5.78916575 ,   70.4859375
0000000139,   6.00000000 ,   1.00000000 ,   1.00000000 ,   5.78916495 ,   5.78916495 ,   70.4859317
0000000140,   7.00000000 ,   1.00000000 ,   1.00000000 ,   5.78916283 ,   5.78916283 ,   70.4859165
0000000141,   8.00000000 ,   1.00000000 ,   1.00000000 ,   5.78916014 ,   5.78916014 ,   70.4858983
0000000142,   9.00000000 ,   1.00000000 ,   1.00000000 ,   5.78915791 ,   5.78915791 ,   70.4858842
0000000143,   10.0000000 ,   1.00000000 ,   1.00000000 ,   5.78915705 ,   5.78915705 ,   70.4858791
0000000144,   0.00000000 ,   2.00000000 ,   1.00000000 ,   5.58554377 ,   5.58554377 ,   72.0848075
0000000145,   1.00000000 ,   2.00000000 ,   1.00000000 ,   5.58554585 ,   5.58554585 ,   72.0848014
0000000146,   2.00000000 ,   2.00000000 ,   1.00000000 ,   5.58555114 ,   5.58555114 ,   72.0847901
0000000147,   3.00000000 ,   2.00000000 ,   1.00000000 ,   5.58555744 ,   5.58555744 ,   72.0847815
0000000148,   4.00000000 ,   2.00000000 ,   1.00000000 ,   5.58556238 ,   5.58556238 ,   72.0847777
0000000149,   5.00000000 ,   2.00000000 ,   1.00000000 ,   5.58556423 ,   5.58556423 ,   72.0847769
0000000150,   6.00000000 ,   2.00000000 ,   1.00000000 ,   5.58556238 ,   5.58556238 ,   72.0847777
0000000151,   7.00000000 ,   2.00000000 ,   1.00000000 ,   5.58555744 ,   5.58555744 ,   72.0847815
0000000152,   8.00000000 ,   2.00000000 ,   1.00000000 ,   5.58555114 ,   5.58555114 ,   72.0847901
0000000153,   9.00000000 ,   2.00000000 ,   1.00000000 ,   5.58554585 ,   5.58554585 ,   72.0848014
0000000154,   10.0000000 ,   2.00000000 ,   1.00000000 ,   5.58554377 ,   5.58554377 ,   72.0848075
0000000155,   0.00000000 ,   3.00000000 ,   1.00000000 ,   5.38514685 ,   5.38514685 ,   72.9830726
0000000156,   1.00000000 ,   3.00000000 ,   1.00000000 ,   5.38515106 ,   5.38515106 ,   72.9830292
0000000157,   2.00000000 ,   3.00000000 ,   1.00000000 ,   5.38516162 ,   5.38516162 ,   72.9829417
0000000158,   3.00000000 ,   3.00000000 ,   1.00000000 ,   5.38517395 ,   5.38517395 ,   72.9828618
0000000159,   4.00000000 ,   3.00000000 ,   1.00000000 ,   5.38518343 ,   5.38518343 ,   72.9828122
0000000160,   5.00000000 ,   3.00000000 ,   1.00000000 ,   5.38518696 ,   5.38518696 ,   72.9827960
0000000161,   6.00000000 ,   3.00000000 ,   1.00000000 ,   5.38518343 ,   5.38518343 ,   72.9828122
0000000162,   7.00000000 ,   3.00000000 ,   1.00000000 ,   5.38517395 ,   5.38517395 ,   72.9828618
0000000163,   8.00000000 ,   3.00000000 ,   1.00000000 ,   5.38516162 ,   5.38516162 ,   72.9829417
0000000164,   9.00000000 ,   3.00000000 ,   1.00000000 ,   5.38515106 ,   5.38515106 ,   72.9830292
0000000165,   10.0000000 ,   3.00000000 ,   1.00000000 ,   5.38514685 ,   5.38514685 ,   72.9830726
0000000166,   0.00000000 ,   4.00000000 ,   1.00000000 ,   5.18624203 ,   5.18624203 ,   73.4988390
0000000167,   1.00000000 ,   4.00000000 ,   1.00000000 ,   5.18625049 ,   5.18625049 ,   73.4986382
0000000168,   2.00000000 ,   4.00000000 ,   1.00000000 ,   5.18627098 ,   5.18627098 ,   73.4982672
0000000169,   3.00000000 ,   4.00000000 ,   1.00000000 ,   5.18629404 ,   5.18629404 ,   73.4979488
0000000170,   4.00000000 ,   4.00000000 ,   1.00000000 ,   5.18631129 ,   5.18631129 ,   73.4977595
0000000171,   5.00000000 ,   4.00000000 ,   1.00000000 ,   5.18631760 ,   5.18631760 ,   73.4976989
0000000172,   6.00000000 ,   4.00000000 ,   1.00000000 ,   5.18631129 ,   5.18631129 ,   73.4977595
0000000173,   7.00000000 ,   4.00000000 ,   1.00000000 ,   5.18629404 ,   5.18629404 ,   73.4979488
0000000174,   8.00000000 ,   4.00000000 ,   1.00000000 ,   5.18627098 ,   5.18627098 ,   73.4982672
0000000175,   9.00000000 ,   4.00000000 ,   1.00000000 ,   5.18625049 ,   5.18625049 ,   73.4986382
0000000176,   10.0000000 ,   4.00000000 ,   1.00000000 ,   5.18624203 ,   5.18624203 ,   73.4988390
0000000177,   0.00000000 ,   5.00000000 ,   1.00000000 ,   4.98801462 ,   4.98801462 ,   73.8002197
0000000178,   1.00000000 ,   5.00000000 ,   1.00000000 ,   4.98803216 ,   4.98803216 ,   73.7992917
0000000179,   2.00000000 ,   5.00000000 ,   1.00000000 ,   4.98807203 ,   4.98807203 ,   73.7978060
0000000180,   3.00000000 ,   5.00000000 ,   1.00000000 ,   4.98811439 ,   4.98811439 ,   73.7966624
0000000181,   4.00000000 ,   5.00000000 ,   1.00000000 ,   4.98814471 ,   4.98814471 ,   73.7960353
0000000182,   5.00000000 ,   5.00000000 ,   1.00000000 ,   4.98815554 ,   4.98815554 ,   73.7958435
0000000183,   6.00000000 ,   5.00000000 ,   1.00000000 ,   4.98814471 ,   4.98814471 ,   73.7960353
0000000184,   7.00000000 ,   5.00000000 ,   1.00000000 ,   4.98811439 ,   4.98811439 ,   73.7966624
0000000185,   8.00000000 ,   5.00000000 ,   1.00000000 ,   4.98807203 ,   4.98807203 ,   73.7978060
0000000186,   9.00000000 ,   5.00000000 ,   1.00000000 ,   4.98803216 ,   4.98803216 ,   73.7992917
0000000187,   10.0000000 ,   5.00000000 ,   1.00000000 ,   4.98801462 ,   4.98801462 ,   73.8002197
0000000188,   0.00000000 ,   6.00000000 ,   1.00000000 ,   4.79004647 ,   4.79004647 ,   73.9889164
0000000189,   1.00000000 ,   6.00000000 ,   1.00000000 ,   4.79008489 ,   4.79008489 ,   73.9843640
0000000190,   2.00000000 ,   6.00000000 ,   1.00000000 ,   4.79016306 ,   4.79016306 ,   73.9784162
0000000191,   3.00000000 ,   6.00000000 ,   1.00000000 ,   4.79023896 ,   4.79023896 ,   73.9744575
0000000192,   4.00000000 ,   6.00000000 ,   1.00000000 ,   4.79028987 ,   4.79028987 ,   73.9725082
0000000193,   5.00000000 ,   6.00000000 ,   1.00000000 ,   4.79030744 ,   4.79030744 ,   73.9719471
0000000194,   6.00000000 ,   6.00000000 ,   1.00000000 ,   4.79028987 ,   4.79028987 ,   73.9725082
0000000195,   7.00000000 ,   6.00000000 ,   1.00000000 ,   4.79023896 ,   4.79023896 ,   73.9744575
0000000196,   8.00000000 ,   6.00000000 ,   1.00000000 ,   4.79016306 ,   4.79016306 ,   73.9784162
0000000197,   9.00000000 ,   6.00000000 ,   1.00000000 ,   4.79008489 ,   4.79008489 ,   73.9843640
0000000198,   10.0000000 ,   6.00000000 ,   1.00000000 ,   4.79004647 ,   4.79004647 ,   73.9889164
0000000199,   0.00000000 ,   7.00000000 ,   1.00000000 ,   4.59211054 ,   4.59211054 ,   74.1548653
0000000200,   1.00000000 ,   7.00000000 ,   1.00000000 ,   4.59220026 ,   4.59220026 ,   74.1307246
0000000201,   2.00000000 ,   7.00000000 ,   1.00000000 ,   4.59235178 ,   4.59235178 ,   74.1067340
0000000202,   3.00000000 ,   7.00000000 ,   1.00000000 ,   4.59248049 ,   4.59248049 ,   74.0934483
0000000203,   4.00000000 ,   7.00000000 ,   1.00000000 ,   4.59255921 ,   4.59255921 ,   74.0877106
0000000204,   5.00000000 ,   7.00000000 ,   1.00000000 ,   4.59258513 ,   4.59258513 ,   74.0861751
0000000205,   6.00000000 ,   7.00000000 ,   1.00000000 ,   4.59255921 ,   4.59255921 ,   74.0877106
0000000206,   7.00000000 ,   7.00000000 ,   1.00000000 ,   4.59248049 ,   4.59248049 ,   74.0934483
0000000207,   8.00000000 ,   7.00000000 ,   1.00000000 ,   4.59235178 ,   4.59235178 ,   74.1067340
0000000208,   9.00000000 ,   7.00000000 ,   1.00000000 ,   4.59220026 ,   4.59220026 ,   74.1307246
0000000209,   10.0000000 ,   7.00000000 ,   1.00000000 ,   4.59211054 ,   4.59211054 ,   74.1548653
0000000210,   0.00000000 ,   8.00000000 ,   1.00000000 ,   4.39410246 ,   4.39410246 ,   74.4759072
0000000211,   1.00000000 ,   8.00000000 ,   1.00000000 ,   4.39431910 ,   4.39431910 ,   74.3380583
0000000212,   2.00000000 ,   8.00000000 ,   1.00000000 ,   4.39459355 ,   4.39459355 ,   74.2432465
0000000213,   3.00000000 ,   8.00000000 ,   1.00000000 ,   4.39478635 ,   4.39478635 ,   74.2017727
0000000214,   4.00000000 ,   8.00000000 ,   1.00000000 ,   4.39489021 ,   4.39489021 ,   74.1865349
0000000215,   5.00000000 ,   8.00000000 ,   1.00000000 ,   4.39492228 ,   4.39492228 ,   74.1828025
0000000216,   6.00000000 ,   8.00000000 ,   1.00000000 ,   4.39489021 ,   4.39489021 ,   74.1865349
0000000217,   7.00000000 ,   8.00000000 ,   1.00000000 ,   4.39478635 ,   4.39478635 ,   74.2017727
0000000218,   8.00000000 ,   8.00000000 ,   1.00000000 ,   4.39459355 ,   4.39459355 ,   74.2432465
0000000219,   9.00000000 ,   8.00000000 ,   1.00000000 ,   4.39431910 ,   4.39431910 ,   74.3380583
0000000220,   10.0000000 ,   8.00000000 ,   1.00000000 ,   4.39410246 ,   4.39410246 ,   74.4759072
0000000221,   0.00000000 ,   9.00000000 ,   1.00000000 ,   4.19618849 ,   4.19618849 ,   75.6385398
0000000222,   1.00000000 ,   9.00000000 ,   1.00000000 ,   4.19664460 ,   4.19664460 ,   74.7951188
0000000223,   2.00000000 ,   9.00000000 ,   1.00000000 ,   4.19702661 ,   4.19702661 ,   74.4473938
0000000224,   3.00000000 ,   9.00000000 ,   1.00000000 ,   4.19723352 ,   4.19723352 ,   74.3355032
0000000225,   4.00000000 ,   9.00000000 ,   1.00000000 ,   4.19732783 ,   4.19732783 ,   74.3017146
0000000226,   5.00000000 ,   9.00000000 ,   1.00000000 ,   4.19735464 ,   4.19735464 ,   74.2942453
0000000227,   6.00000000 ,   9.00000000 ,   1.00000000 ,   4.19732783 ,   4.19732783 ,   74.3017146
0000000228,   7.00000000 ,   9.00000000 ,   1.00000000 ,   4.19723352 ,   4.19723352 ,   74.3355032
0000000229,   8.00000000 ,   9.00000000 ,   1.00000000 ,   4.19702661 ,   4.19702661 ,   74.4473938
0000000230,   9.00000000 ,   9.00000000 ,   1.00000000 ,   4.19664460 ,   4.19664460 ,   74.7951188
0000000231,   10.0000000 ,   9.00000000 ,   1.00000000 ,   4.19618849 ,   4.19618849 ,   75.6385398
0000000232,   0.00000000 ,   10.0000000 ,   1.00000000 ,   4.00000000 ,   4.00000000 ,   81.1344480
0000000233,   1.00000000 ,   10.0000000 ,   1.00000000 ,   4.00000000 ,   4.00000000 ,   75.6531823
0000000234,   2.00000000 ,   10.0000000 ,   1.00000000 ,   4.00000000 ,   4.00000000 ,   74.6661855
0000000235,   3.00000000 ,   10.0000000 ,   1.00000000 ,   4.00000000 ,   4.00000000 ,   74.4555279
0000000236,   4.00000000 ,   10.0000000 ,   1.00000000 ,   4.00000000 ,   4.00000000 ,   74.4042088
0000000237,   5.00000000 ,   10.0000000 ,   1.00000000 ,   4.00000000 ,   4.00000000 ,   74.3938874
0000000238,   6.00000000 ,   10.0000000 ,   1.00000000 ,   4.00000000 ,   4.00000000 ,   74.4042088
0000000239,   7.00000000 ,   10.0000000 ,   1.00000000 ,   4.00000000 ,   4.00000000 ,   74.4555279
0000000240,   8.00000000 ,   10.0000000 ,   1.00000000 ,   4.00000000 ,   4.00000000 ,   74.6661855
0000000241,   9.00000000 ,   10.0000000 ,   1.00000000 ,   4.00000000 ,   4.00000000 ,   75.6531823
0000000242,   10.0000000 ,   10.0000000 ,   1.00000000 ,   4.00000000 ,   4.00000000 ,   81.1344480
0000000243,   0.00000000 ,   0.00000000 ,   2.00000000 ,   6.00000000 ,   6.00000000 ,   63.4135074
0000000244,   1.00000000 ,   0.00000000 ,   2.00000000 ,   6.00000000 ,   6.00000000 ,   63.4135149
0000000245,   2.00000000 ,   0.00000000 ,   2.00000000 ,   6.00000000 ,   6.00000000 ,   63.4135346
0000000246,   3.00000000 ,   0.00000000 ,   2.00000000 ,   6.00000000 ,   6.00000000 ,   63.4135591
0000000247,   4.00000000 ,   0.00000000 ,   2.00000000 ,   6.00000000 ,   6.00000000 ,   63.4135789
0000000248,   5.00000000 ,   0.00000000 ,   2.00000000 ,   6.00000000 ,   6.00000000 ,   63.4135865
0000000249,   6.00000000 ,   0.00000000 ,   2.00000000 ,   6.00000000 ,   6.00000000 ,   63.4135789
0000000250,   7.00000000 ,   0.00000000 ,   2.00000000 ,   6.00000000 ,   6.00000000 ,   63.4135591
0000000251,   8.00000000 ,   0.00000000 ,   2.00000000 ,   6.00000000 ,   6.00000000 ,   63.4135346
0000000252,   9.00000000 ,   0.00000000 ,   2.00000000 ,   6.00000000 ,   6.00000000 ,   63.4135149
0000000253,   10.0000000 ,   0.00000000 ,   2.00000000 ,   6.00000000 ,   6.00000000 ,   63.4135074
0000000254,   0.00000000 ,   1.00000000 ,   2.00000000 ,   5.78857976 ,   5.78857976 ,   65.3293896
0000000255,   1.00000000 ,   1.00000000 ,   2.00000000 ,   5.78858077 ,   5.78858077 ,   65.3293926
0000000256,   2.00000000 ,   1.00000000 ,   2.00000000 ,   5.78858338 ,   5.78858338 ,   65.3294014
0000000257,   3.00000000 ,   1.00000000 ,   2.00000000 ,   5.78858652 ,   5.78858652 ,   65.3294138
0000000258,   4.00000000 ,   1.00000000 ,   2.00000000 ,   5.78858901 ,   5.78858901 ,   65.3294248
0000000259,   5.00000000 ,   1.00000000 ,   2.00000000 ,   5.78858995 ,   5.78858995 ,   65.3294291
0000000260,   6.00000000 ,   1.00000000 ,   2.00000000 ,   5.78858901 ,   5.78858901 ,   65.3294248
0000000261,   7.00000000 ,   1.00000000 ,   2.00000000 ,   5.78858652 ,   5.78858652 ,   65.3294138
0000000262,   8.00000000 ,   1.00000000 ,   2.00000000 ,   5.78858338 ,   5.78858338 ,   65.3294014
0000000263,   9.00000000 ,   1.00000000 ,   2.00000000 ,   5.78858077 ,   5.78858077 ,   65.3293926
0000000264,   10.0000000 ,   1.00000000 ,   2.00000000 ,   5.78857976 ,   5.78857976 ,   65.3293896
0000000265,   0.00000000 ,   2.00000000 ,   2.00000000 ,   5.58265900 ,   5.58265900 ,   66.7238914
0000000266,   1.00000000 ,   2.00000000 ,   2.00000000 ,   5.58266145 ,   5.58266145 ,   66.7238804
0000000267,   2.00000000 ,   2.00000000 ,   2.00000000 ,   5.58266768 ,   5.58266768 ,   66.7238580
0000000268,   3.00000000 ,   2.00000000 ,   2.00000000 ,   5.58267513 ,   5.58267513 ,   66.7238382
0000000269,   4.00000000 ,   2.00000000 ,   2.00000000 ,   5.58268097 ,   5.58268097 ,   66.7238269
0000000270,   5.00000000 ,   2.00000000 ,   2.00000000 ,   5.58268316 ,   5.58268316 ,   66.7238235
0000000271,   6.00000000 ,   2.00000000 ,   2.00000000 ,   5.58268097 ,   5.58268097 ,   66.7238269
0000000272,   7.00000000 ,   2.00000000 ,   2.00000000 ,   5.58267513 ,   5.58267513 ,   66.7238382
0000000273,   8.00000000 ,   2.00000000 ,   2.00000000 ,   5.58266768 ,   5.58266768 ,   66.7238580
0000000274,   9.00000000 ,   2.00000000 ,   2.00000000 ,   5.58266145 ,   5.58266145 ,   66.7238804
0000000275,   10.0000000 ,   2.00000000 ,   2.00000000 ,   5.58265900 ,   5.58265900 ,   66.7238914
0000000276,   0.00000000 ,   3.00000000 ,   2.00000000 ,   5.38043670 ,   5.38043670 ,   67.6653602
0000000277,   1.00000000 ,   3.00000000 ,   2.00000000 ,   5.38044166 ,   5.38044166 ,   67.6652972
0000000278,   2.00000000 ,   3.00000000 ,   2.00000000 ,   5.38045414 ,   5.38045414 ,   67.6651666
0000000279,   3.00000000 ,   3.00000000 ,   2.00000000 ,   5.38046874 ,   5.38046874 ,   67.6650441
0000000280,   4.00000000 ,   3.00000000 ,   2.00000000 ,   5.38048000 ,   5.38048000 ,   67.6649666
0000000281,   5.00000000 ,   3.00000000 ,   2.00000000 ,   5.38048418 ,   5.38048418 ,   67.6649410
0000000282,   6.00000000 ,   3.00000000 ,   2.00000000 ,   5.38048000 ,   5.38048000 ,   67.6649666
0000000283,   7.00000000 ,   3.00000000 ,   2.00000000 ,   5.38046874 ,   5.38046874 ,   67.6650441
0000000284,   8.00000000 ,   3.00000000 ,   2.00000000 ,   5.38045414 ,   5.38045414 ,   67.6651666
0000000285,   9.00000000 ,   3.00000000 ,   2.00000000 ,   5.38044166 ,   5.38044166 ,   67.6652972
0000000286,   10.0000000 ,   3.00000000 ,   2.00000000 ,   5.38043670 ,   5.38043670 ,   67.6653602
0000000287,   0.00000000 ,   4.00000000 ,   2.00000000 ,   5.18052864 ,   5.18052864 ,   68.2735101
0000000288,   1.00000000 ,   4.00000000 ,   2.00000000 ,   5.18053854 ,   5.18053854 ,   68.2732345
0000000289,   2.00000000 ,   4.00000000 ,   2.00000000 ,   5.18056264 ,   5.18056264 ,   68.2727039
0000000290,   3.00000000 ,   4.00000000 ,   2.00000000 ,   5.18058994 ,   5.18058994 ,   68.2722336
0000000291,   4.00000000 ,   4.00000000 ,   2.00000000 ,   5.18061044 ,   5.18061044 ,   68.2719472
0000000292,   5.00000000 ,   4.00000000 ,   2.00000000 ,   5.18061794 ,   5.18061794 ,   68.2718544
0000000293,   6.00000000 ,   4.00000000 ,   2.00000000 ,   5.18061044 ,   5.18061044 ,   68.2719472
0000000294,   7.00000000 ,   4.00000000 ,   2.00000000 ,   5.18058994 ,   5.18058994 ,   68.2722336
0000000295,   8.00000000 ,   4.00000000 ,   2.00000000 ,   5.18056264 ,   5.18056264 ,   68.2727039
0000000296,   9.00000000 ,   4.00000000 ,   2.00000000 ,   5.18053854 ,   5.18053854 ,   68.2732345
0000000297,   10.0000000 ,   4.00000000 ,   2.00000000 ,   5.18052864 ,   5.18052864 ,   68.2735101
0000000298,   0.00000000 ,   5.00000000 ,   2.00000000 ,   4.98200798 ,   4.98200798 ,   68.6579764
0000000299,   1.00000000 ,   5.00000000 ,   2.00000000 ,   4.98202812 ,   4.98202812 ,   68.6567818
0000000300,   2.00000000 ,   5.00000000 ,   2.00000000 ,   4.98207452 ,   4.98207452 ,   68.6547483
0000000301,   3.00000000 ,   5.00000000 ,   2.00000000 ,   4.98212436 ,   4.98212436 ,   68.6531075
0000000302,   4.00000000 ,   5.00000000 ,   2.00000000 ,   4.98216030 ,   4.98216030 ,   68.6521756
0000000303,   5.00000000 ,   5.00000000 ,   2.00000000 ,   4.98217319 ,   4.98217319 ,   68.6518850
0000000304,   6.00000000 ,   5.00000000 ,   2.00000000 ,   4.98216030 ,   4.98216030 ,   68.6521756
0000000305,   7.00000000 ,   5.00000000 ,   2.00000000 ,   4.98212436 ,   4.98212436 ,   68.6531075
0000000306,   8.00000000 ,   5.00000000 ,   2.00000000 ,   4.98207452 ,   4.98207452 ,   68.6547483
0000000307,   9.00000000 ,   5.00000000 ,   2.00000000 ,   4.98202812 ,   4.98202812 ,   68.6567818
0000000308,   10.0000000 ,   5.00000000 ,   2.00000000 ,   4.98200798 ,   4.98200798 ,   68.6579764
0000000309,   0.00000000 ,   6.00000000 ,   2.00000000 ,   4.78429297 ,   4.78429297 ,   68.9133075
0000000310,   1.00000000 ,   6.00000000 ,   2.00000000 ,   4.78433568 ,   4.78433568 ,   68.9079051
0000000311,   2.00000000 ,   6.00000000 ,   2.00000000 ,   4.78442484 ,   4.78442484 ,   68.9002120
0000000312,   3.00000000 ,   6.00000000 ,   2.00000000 ,   4.78451311 ,   4.78451311 ,   68.8947437
0000000313,   4.00000000 ,   6.00000000 ,   2.00000000 ,   4.78457310 ,   4.78457310 ,   68.8919118
0000000314,   5.00000000 ,   6.00000000 ,   2.00000000 ,   4.78459394 ,   4.78459394 ,   68.8910727
0000000315,   6.00000000 ,   6.00000000 ,   2.00000000 ,   4.78457310 ,   4.78457310 ,   68.8919118
0000000316,   7.00000000 ,   6.00000000 ,   2.00000000 ,   4.78451311 ,   4.78451311 ,   68.8947437
0000000317,   8.00000000 ,   6.00000000 ,   2.00000000 ,   4.78442484 ,   4.78442484 ,   68.9002120
0000000318,   9.00000000 ,   6.00000000 ,   2.00000000 ,   4.78433568 ,   4.78433568 ,   68.9079051
0000000319,   10.0000000 ,   6.00000000 ,   2.00000000 ,   4.78429297 ,   4.78429297 ,   68.9133075
0000000320,   0.00000000 ,   7.00000000 ,   2.00000000 ,   4.58704866 ,   4.58704866 ,   69.1450883
0000000321,   1.00000000 ,   7.00000000 ,   2.00000000 ,   4.58714360 ,   4.58714360 ,   69.1191381
0000000322,   2.00000000 ,   7.00000000 ,   2.00000000 ,   4.58731146 ,   4.58731146 ,   69.0903430
0000000323,   3.00000000 ,   7.00000000 ,   2.00000000 ,   4.58745872 ,   4.58745872 ,   69.0729834
0000000324,   4.00000000 ,   7.00000000 ,   2.00000000 ,   4.58755076 ,   4.58755076 ,   69.0649744
0000000325,   5.00000000 ,   7.00000000 ,   2.00000000 ,   4.58758138 ,   4.58758138 ,   69.0627466
0000000326,   6.00000000 ,   7.00000000 ,   2.00000000 ,   4.58755076 ,   4.58755076 ,   69.0649744
0000000327,   7.00000000 ,   7.00000000 ,   2.00000000 ,   4.58745872 ,   4.58745872 ,   69.0729834
0000000328,   8.00000000 ,   7.00000000 ,   2.00000000 ,   4.58731146 ,   4.58731146 ,   69.0903430
0000000329,   9.00000000 ,   7.00000000 ,   2.00000000 ,   4.58714360 ,   4.58714360 ,   69.1191381
0000000330,   10.0000000 ,   7.00000000 ,   2.00000000 ,   4.58704866 ,   4.58704866 ,   69.1450883
0000000331,   0.00000000 ,   8.00000000 ,   2.00000000 ,   4.39015806 ,   4.39015806 ,   69.5611006
0000000332,   1.00000000 ,   8.00000000 ,   2.00000000 ,   4.39037278 ,   4.39037278 ,   69.4280303
0000000333,   2.00000000 ,   8.00000000 ,   2.00000000 ,   4.39066485 ,   4.39066485 ,   69.3234939
0000000334,   3.00000000 ,   8.00000000 ,   2.00000000 ,   4.39088053 ,   4.39088053 ,   69.2725643
0000000335,   4.00000000 ,   8.00000000 ,   2.00000000 ,   4.39100073 ,   4.39100073 ,   69.2521712
0000000336,   5.00000000 ,   8.00000000 ,   2.00000000 ,   4.39103848 ,   4.39103848 ,   69.2469112
0000000337,   6.00000000 ,   8.00000000 ,   2.00000000 ,   4.39100073 ,   4.39100073 ,   69.2521712
0000000338,   7.00000000 ,   8.00000000 ,   2.00000000 ,   4.39088053 ,   4.39088053 ,   69.2725643
0000000339,   8.00000000 ,   8.00000000 ,   2.00000000 ,   4.39066485 ,   4.39066485 ,   69.3234939
0000000340,   9.00000000 ,   8.00000000 ,   2.00000000 ,   4.39037278 ,   4.39037278 ,   69.4280303
0000000341,   10.0000000 ,   8.00000000 ,   2.00000000 ,   4.39015806 ,   4.39015806 ,   69.5611006
0000000342,   0.00000000 ,   9.00000000 ,   2.00000000 ,   4.19389801 ,   4.19389801 ,   70.8093330
0000000343,   1.00000000 ,   9.00000000 ,   2.00000000 ,   4.19431686 ,   4.19431686 ,   70.0822185
0000000344,   2.00000000 ,   9.00000000 ,   2.00000000 ,   4.19470320 ,   4.19470320 ,   69.7330840
0000000345,   3.00000000 ,   9.00000000 ,   2.00000000 ,   4.19492827 ,   4.19492827 ,   69.6042812
0000000346,   4.00000000 ,   9.00000000 ,   2.00000000 ,   4.19503624 ,   4.19503624 ,   69.5606878
0000000347,   5.00000000 ,   9.00000000 ,   2.00000000 ,   4.19506774 ,   4.19506774 ,   69.5503496
0000000348,   6.00000000 ,   9.00000000 ,   2.00000000 ,   4.19503624 ,   4.19503624 ,   69.5606878
0000000349,   7.00000000 ,   9.00000000 ,   2.00000000 ,   4.19492827 ,   4.19492827 ,   69.6042812
0000000350,   8.00000000 ,   9.00000000 ,   2.00000000 ,   4.19470320 ,   4.19470320 ,   69.7330840
0000000351,   9.00000000 ,   9.00000000 ,   2.00000000 ,   4.19431686 ,   4.19431686 ,   70.0822185
0000000352,   10.0000000 ,   9.00000000 ,   2.00000000 ,   4.19389801 ,   4.19389801 ,   70.8093330
0000000353,   0.00000000 ,   10.0000000 ,   2.00000000 ,   4.00000000 ,   4.00000000 ,   75.4069236
0000000354,   1.00000000 ,   10.0000000 ,   2.00000000 ,   4.00000000 ,   4.00000000 ,   71.2037681
0000000355,   2.00000000 ,   10.0000000 ,   2.00000000 ,   4.00000000 ,   4.00000000 ,   70.3054072
0000000356,   3.00000000 ,   10.0000000 ,   2.00000000 ,   4.00000000 ,   4.00000000 ,   70.0756317
0000000357,   4.00000000 ,   10.0000000 ,   2.00000000 ,   4.00000000 ,   4.00000000 ,   70.0101465
0000000358,   5.00000000 ,   10.0000000 ,   2.00000000 ,   4.00000000 ,   4.00000000 ,   69.9956507
0000000359,   6.00000000 ,   10.0000000 ,   2.00000000 ,   4.00000000 ,   4.00000000 ,   70.0101465
0000000360,   7.00000000 ,   10.0000000 ,   2.00000000 ,   4.00000000 ,   4.00000000 ,   70.0756317
0000000361,   8.00000000 ,   10.0000000 ,   2.00000000 ,   4.00000000 ,   4.00000000 ,   70.3054072
0000000362,   9.00000000 ,   10.0000000 ,   2.00000000 ,   4.00000000 ,   4.00000000 ,   71.2037681
0000000363,   10.0000000 ,   10.0000000 ,   2.00000000 ,   4.00000000 ,   4.00000000 ,   75.4069236
0000000364,   0.00000000 ,   0.00000000 ,   3.00000000 ,   6.00000000 ,   6.00000000 ,   61.7508487
0000000365,   1.00000000 ,   0.00000000 ,   3.00000000 ,   6.00000000 ,   6.00000000 ,   61.7508512
0000000366,   2.00000000 ,   0.00000000 ,   3.00000000 ,   6.00000000 ,   6.00000000 ,   61.7508580
0000000367,   3.00000000 ,   0.00000000 ,   3.00000000 ,   6.00000000 ,   6.00000000 ,   61.7508669
0000000368,   4.00000000 ,   0.00000000 ,   3.00000000 ,   6.00000000 ,   6.00000000 ,   61.7508744
0000000369,   5.00000000 ,   0.00000000 ,   3.00000000 ,   6.00000000 ,   6.00000000 ,   61.7508773
0000000370,   6.00000000 ,   0.00000000 ,   3.00000000 ,   6.00000000 ,   6.00000000 ,   61.7508744
0000000371,   7.00000000 ,   0.00000000 ,   3.00000000 ,   6.00000000 ,   6.00000000 ,   61.7508669
0000000372,   8.00000000 ,   0.00000000 ,   3.00000000 ,   6.00000000 ,   6.00000000 ,   61.7508580
0000000373,   9.00000000 ,   0.00000000 ,   3.00000000 ,   6.00000000 ,   6.00000000 ,   61.7508512
0000000374,   10.0000000 ,   0.00000000 ,   3.00000000 ,   6.00000000 ,   6.00000000 ,   61.7508487
0000000375,   0.00000000 ,   1.00000000 ,   3.00000000 ,   5.78896809 ,   5.78896809 ,   62.7646574
0000000376,   1.00000000 ,   1.00000000 ,   3.00000000 ,   5.78896898 ,   5.78896898 ,   62.7646560
0000000377,   2.00000000 ,   1.00000000 ,   3.00000000 ,   5.78897127 ,   5.78897127 ,   62.7646536
0000000378,   3.00000000 ,   1.00000000 ,   3.00000000 ,   5.78897404 ,   5.78897404 ,   62.7646523
0000000379,   4.00000000 ,   1.00000000 ,   3.00000000 ,   5.78897625 ,   5.78897625 ,   62.7646525
0000000380,   5.00000000 ,   1.00000000 ,   3.00000000 ,   5.78897708 ,   5.78897708 ,   62.7646528
0000000381,   6.00000000 ,   1.00000000 ,   3.00000000 ,   5.78897625 ,   5.78897625 ,   62.7646525
0000000382,   7.00000000 ,   1.00000000 ,   3.00000000 ,   5.78897404 ,   5.78897404 ,   62.7646523
0000000383,   8.00000000 ,   1.00000000 ,   3.00000000 ,   5.78897127 ,   5.78897127 ,   62.7646536
0000000384,   9.00000000 ,   1.00000000 ,   3.00000000 ,   5.78896898 ,   5.78896898 ,   62.7646560
0000000385,   10.0000000 ,   1.00000000 ,   3.00000000 ,   5.78896809 ,   5.78896809 ,   62.7646574
0000000386,   0.00000000 ,   2.00000000 ,   3.00000000 ,   5.58195056 ,   5.58195056 ,   63.6117538
0000000387,   1.00000000 ,   2.00000000 ,   3.00000000 ,   5.58195266 ,   5.58195266 ,   63.6117382
0000000388,   2.00000000 ,   2.00000000 ,   3.00000000 ,   5.58195807 ,   5.58195807 ,   63.6117031
0000000389,   3.00000000 ,   2.00000000 ,   3.00000000 ,   5.58196457 ,   5.58196457 ,   63.6116677
0000000390,   4.00000000 ,   2.00000000 ,   3.00000000 ,   5.58196969 ,   5.58196969 ,   63.6116440
0000000391,   5.00000000 ,   2.00000000 ,   3.00000000 ,   5.58197162 ,   5.58197162 ,   63.6116359
0000000392,   6.00000000 ,   2.00000000 ,   3.00000000 ,   5.58196969 ,   5.58196969 ,   63.6116440
0000000393,   7.00000000 ,   2.00000000 ,   3.00000000 ,   5.58196457 ,   5.58196457 ,   63.6116677
0000000394,   8.00000000 ,   2.00000000 ,   3.00000000 ,   5.58195807 ,   5.58195807 ,   63.6117031
0000000395,   9.00000000 ,   2.00000000 ,   3.00000000 ,   5.58195266 ,   5.58195266 ,   63.6117382
0000000396,   10.0000000 ,   2.00000000 ,   3.00000000 ,   5.58195056 ,   5.58195056 ,   63.6117538
0000000397,   0.00000000 ,   3.00000000 ,   3.00000000 ,   5.37826102 ,   5.37826102 ,   64.2509422
0000000398,   1.00000000 ,   3.00000000 ,   3.00000000 ,   5.37826516 ,   5.37826516 ,   64.2508753
0000000399,   2.00000000 ,   3.00000000 ,   3.00000000 ,   5.37827568 ,   5.37827568 ,   64.2507284
0000000400,   3.00000000 ,   3.00000000 ,   3.00000000 ,   5.37828813 ,   5.37828813 ,   64.2505822
0000000401,   4.00000000 ,   3.00000000 ,   3.00000000 ,   5.37829783 ,   5.37829783 ,   64.2504849
0000000402,   5.00000000 ,   3.00000000 ,   3.00000000 ,   5.37830145 ,   5.37830145 ,   64.2504517
0000000403,   6.00000000 ,   3.00000000 ,   3.00000000 ,   5.37829783 ,   5.37829783 ,   64.2504849
0000000404,   7.00000000 ,   3.00000000 ,   3.00000000 ,   5.37828813 ,   5.37828813 ,   64.2505822
0000000405,   8.00000000 ,   3.00000000 ,   3.00000000 ,   5.37827568 ,   5.37827568 ,   64.2507284
0000000406,   9.00000000 ,   3.00000000 ,   3.00000000 ,   5.37826516 ,   5.37826516 ,   64.2508753
0000000407,   10.0000000 ,   3.00000000 ,   3.00000000 ,   5.37826102 ,   5.37826102 ,   64.2509422
0000000408,   0.00000000 ,   4.00000000 ,   3.00000000 ,   5.17709757 ,   5.17709757 ,   64.6966263
0000000409,   1.00000000 ,   4.00000000 ,   3.00000000 ,   5.17710543 ,   5.17710543 ,   64.6963701
0000000410,   2.00000000 ,   4.00000000 ,   3.00000000 ,   5.17712494 ,   5.17712494 ,   64.6958403
0000000411,   3.00000000 ,   4.00000000 ,   3.00000000 ,   5.17714747 ,   5.17714747 ,   64.6953406
0000000412,   4.00000000 ,   4.00000000 ,   3.00000000 ,   5.17716465 ,   5.17716465 ,   64.6950208
0000000413,   5.00000000 ,   4.00000000 ,   3.00000000 ,   5.17717100 ,   5.17717100 ,   64.6949143
0000000414,   6.00000000 ,   4.00000000 ,   3.00000000 ,   5.17716465 ,   5.17716465 ,   64.6950208
0000000415,   7.00000000 ,   4.00000000 ,   3.00000000 ,   5.17714747 ,   5.17714747 ,   64.6953406
0000000416,   8.00000000 ,   4.00000000 ,   3.00000000 ,   5.17712494 ,   5.17712494 ,   64.6958403
0000000417,   9.00000000 ,   4.00000000 ,   3.00000000 ,   5.17710543 ,   5.17710543 ,   64.6963701
0000000418,   10.0000000 ,   4.00000000 ,   3.00000000 ,   5.17709757 ,   5.17709757 ,   64.6966263
0000000419,   0.00000000 ,   5.00000000 ,   3.00000000 ,   4.97775181 ,   4.97775181 ,   64.9929750
0000000420,   1.00000000 ,   5.00000000 ,   3.00000000 ,   4.97776670 ,   4.97776670 ,   64.9920030
0000000421,   2.00000000 ,   5.00000000 ,   3.00000000 ,   4.97780227 ,   4.97780227 ,   64.9901712
0000000422,   3.00000000 ,   5.00000000 ,   3.00000000 ,   4.97784174 ,   4.97784174 ,   64.9885706
0000000423,   4.00000000 ,   5.00000000 ,   3.00000000 ,   4.97787091 ,   4.97787091 ,   64.9876046
0000000424,   5.00000000 ,   5.00000000 ,   3.00000000 ,   4.97788149 ,   4.97788149 ,   64.9872929
0000000425,   6.00000000 ,   5.00000000 ,   3.00000000 ,   4.97787091 ,   4.97787091 ,   64.9876046
0000000426,   7.00000000 ,   5.00000000 ,   3.00000000 ,   4.97784174 ,   4.97784174 ,   64.9885706
0000000427,   8.00000000 ,   5.00000000 ,   3.00000000 ,   4.97780227 ,   4.97780227 ,   64.9901712
0000000428,   9.00000000 ,   5.00000000 ,   3.00000000 ,   4.97776670 ,   4.97776670 ,   64.9920030
0000000429,   10.0000000 ,   5.00000000 ,   3.00000000 ,   4.97775181 ,   4.97775181 ,   64.9929750
0000000430,   0.00000000 ,   6.00000000 ,   3.00000000 ,   4.77969652 ,   4.77969652 ,   65.1993979
0000000431,   1.00000000 ,   6.00000000 ,   3.00000000 ,   4.77972504 ,   4.77972504 ,   65.1956432
0000000432,   2.00000000 ,   6.00000000 ,   3.00000000 ,   4.77978875 ,   4.77978875 ,   65.1894458
0000000433,   3.00000000 ,   6.00000000 ,   3.00000000 ,   4.77985526 ,   4.77985526 ,   65.1845485
0000000434,   4.00000000 ,   6.00000000 ,   3.00000000 ,   4.77990220 ,   4.77990220 ,   65.1818061
0000000435,   5.00000000 ,   6.00000000 ,   3.00000000 ,   4.77991884 ,   4.77991884 ,   65.1809573
0000000436,   6.00000000 ,   6.00000000 ,   3.00000000 ,   4.77990220 ,   4.77990220 ,   65.1818061
0000000437,   7.00000000 ,   6.00000000 ,   3.00000000 ,   4.77985526 ,   4.77985526 ,   65.1845485
0000000438,   8.00000000 ,   6.00000000 ,   3.00000000 ,   4.77978875 ,   4.77978875 ,   65.1894458
0000000439,   9.00000000 ,   6.00000000 ,   3.00000000 ,   4.77972504 ,   4.77972504 ,   65.1956432
0000000440,   10.0000000 ,   6.00000000 ,   3.00000000 ,   4.77969652 ,   4.77969652 ,   65.1993979
0000000441,   0.00000000 ,   7.00000000 ,   3.00000000 ,   4.58261445 ,   4.58261445 ,   65.4016486
0000000442,   1.00000000 ,   7.00000000 ,   3.00000000 ,   4.58266944 ,   4.58266944 ,   65.3867945
0000000443,   2.00000000 ,   7.00000000 ,   3.00000000 ,   4.58277920 ,   4.58277920 ,   65.3663794
0000000444,   3.00000000 ,   7.00000000 ,   3.00000000 ,   4.58288395 ,   4.58288395 ,   65.3521768
0000000445,   4.00000000 ,   7.00000000 ,   3.00000000 ,   4.58295327 ,   4.58295327 ,   65.3449190
0000000446,   5.00000000 ,   7.00000000 ,   3.00000000 ,   4.58297701 ,   4.58297701 ,   65.3427825
0000000447,   6.00000000 ,   7.00000000 ,   3.00000000 ,   4.58295327 ,   4.58295327 ,   65.3449190
0000000448,   7.00000000 ,   7.00000000 ,   3.00000000 ,   4.58288395 ,   4.58288395 ,   65.3521768
0000000449,   8.00000000 ,   7.00000000 ,   3.00000000 ,   4.58277919 ,   4.58277919 ,   65.3663794
0000000450,   9.00000000 ,   7.00000000 ,   3.00000000 ,   4.58266944 ,   4.58266944 ,   65.3867945
0000000451,   10.0000000 ,   7.00000000 ,   3.00000000 ,   4.58261445 ,   4.58261445 ,   65.4016486
0000000452,   0.00000000 ,   8.00000000 ,   3.00000000 ,   4.38645099 ,   4.38645099 ,   65.7775872
0000000453,   1.00000000 ,   8.00000000 ,   3.00000000 ,   4.38655364 ,   4.38655364 ,   65.7180441
0000000454,   2.00000000 ,   8.00000000 ,   3.00000000 ,   4.38672491 ,   4.38672491 ,   65.6539609
0000000455,   3.00000000 ,   8.00000000 ,   3.00000000 ,   4.38686895 ,   4.38686895 ,   65.6158418
0000000456,   4.00000000 ,   8.00000000 ,   3.00000000 ,   4.38695630 ,   4.38695630 ,   65.5983382
0000000457,   5.00000000 ,   8.00000000 ,   3.00000000 ,   4.38698491 ,   4.38698491 ,   65.5934732
0000000458,   6.00000000 ,   8.00000000 ,   3.00000000 ,   4.38695630 ,   4.38695630 ,   65.5983382
0000000459,   7.00000000 ,   8.00000000 ,   3.00000000 ,   4.38686895 ,   4.38686895 ,   65.6158418
0000000460,   8.00000000 ,   8.00000000 ,   3.00000000 ,   4.38672491 ,   4.38672491 ,   65.6539609
0000000461,   9.00000000 ,   8.00000000 ,   3.00000000 ,   4.38655364 ,   4.38655364 ,   65.7180441
0000000462,   10.0000000 ,   8.00000000 ,   3.00000000 ,   4.38645099 ,   4.38645099 ,   65.7775872
0000000463,   0.00000000 ,   9.00000000 ,   3.00000000 ,   4.19164405 ,   4.19164405 ,   66.8300361
0000000464,   1.00000000 ,   9.00000000 ,   3.00000000 ,   4.19180008 ,   4.19180008 ,   66.5973793
0000000465,   2.00000000 ,   9.00000000 ,   3.00000000 ,   4.19199964 ,   4.19199964 ,   66.4143560
0000000466,   3.00000000 ,   9.00000000 ,   3.00000000 ,   4.19214119 ,   4.19214119 ,   66.3235347
0000000467,   4.00000000 ,   9.00000000 ,   3.00000000 ,   4.19221796 ,   4.19221796 ,   66.2863028
0000000468,   5.00000000 ,   9.00000000 ,   3.00000000 ,   4.19224173 ,   4.19224173 ,   66.2765367
0000000469,   6.00000000 ,   9.00000000 ,   3.00000000 ,   4.19221796 ,   4.19221796 ,   66.2863028
0000000470,   7.00000000 ,   9.00000000 ,   3.00000000 ,   4.19214119 ,   4.19214119 ,   66.3235347
0000000471,   8.00000000 ,   9.00000000 ,   3.00000000 ,   4.19199964 ,   4.19199964 ,   66.4143560
0000000472,   9.00000000 ,   9.00000000 ,   3.00000000 ,   4.19180008 ,   4.19180008 ,   66.5973793
0000000473,   10.0000000 ,   9.00000000 ,   3.00000000 ,   4.19164405 ,   4.19164405 ,   66.8300361
0000000474,   0.00000000 ,   10.0000000 ,   3.00000000 ,   4.00000000 ,   4.00000000 ,   70.1972351
0000000475,   1.00000000 ,   10.0000000 ,   3.00000000 ,   4.00000000 ,   4.00000000 ,   69.4098830
0000000476,   2.00000000 ,   10.0000000 ,   3.00000000 ,   4.00000000 ,   4.00000000 ,   68.9785431
0000000477,   3.00000000 ,   10.0000000 ,   3.00000000 ,   4.00000000 ,   4.00000000 ,   68.7968296
0000000478,   4.00000000 ,   10.0000000 ,   3.00000000 ,   4.00000000 ,   4.00000000 ,   68.7281997
0000000479,   5.00000000 ,   10.0000000 ,   3.00000000 ,   4.00000000 ,   4.00000000 ,   68.7108416
0000000480,   6.00000000 ,   10.0000000 ,   3.00000000 ,   4.00000000 ,   4.00000000 ,   68.7281997
0000000481,   7.00000000 ,   10.0000000 ,   3.00000000 ,   4.00000000 ,   4.00000000 ,   68.7968296
0000000482,   8.00000000 ,   10.0000000 ,   3.00000000 ,   4.00000000 ,   4.00000000 ,   68.9785431
0000000483,   9.00000000 ,   10.0000000 ,   3.00000000 ,   4.00000000 ,   4.00000000 ,   69.4098830
0000000484,   10.0000000 ,   10.0000000 ,   3.00000000 ,   4.00000000 ,   4.00000000 ,   70.1972351
0000000485,   0.00000000 ,   0.00000000 ,   4.00000000 ,   6.00000000 ,   6.00000000 ,   61.3589812
0000000486,   1.00000000 ,   0.00000000 ,   4.00000000 ,   6.00000000 ,   6.00000000 ,   61.3589792
0000000487,   2.00000000 ,   0.00000000 ,   4.00000000 ,   6.00000000 ,   6.00000000 ,   61.3589744
0000000488,   3.00000000 ,   0.00000000 ,   4.00000000 ,   6.00000000 ,   6.00000000 ,   61.3589694
0000000489,   4.00000000 ,   0.00000000 ,   4.00000000 ,   6.00000000 ,   6.00000000 ,   61.3589660
0000000490,   5.00000000 ,   0.00000000 ,   4.00000000 ,   6.00000000 ,   6.00000000 ,   61.3589648
0000000491,   6.00000000 ,   0.00000000 ,   4.00000000 ,   6.00000000 ,   6.00000000 ,   61.3589660
0000000492,   7.00000000 ,   0.00000000 ,   4.00000000 ,   6.00000000 ,   6.00000000 ,   61.3589694
0000000493,   8.00000000 ,   0.00000000 ,   4.00000000 ,   6.00000000 ,   6.00000000 ,   61.3589744
0000000494,   9.00000000 ,   0.00000000 ,   4.00000000 ,   6.00000000 ,   6.00000000 ,   61.3589792
0000000495,   10.0000000 ,   0.00000000 ,   4.00000000 ,   6.00000000 ,   6.00000000 ,   61.3589812
0000000496,   0.00000000 ,   1.00000000 ,   4.00000000 ,   6.12197084 ,   6.12197084 ,   61.6371096
0000000497,   1.00000000 ,   1.00000000 ,   4.00000000 ,   6.12196719 ,   6.12196719 ,   61.6371041
0000000498,   2.00000000 ,   1.00000000 ,   4.00000000 ,   6.12195821 ,   6.12195821 ,   61.6370910
0000000499,   3.00000000 ,   1.00000000 ,   4.00000000 ,   6.12194811 ,   6.12194811 ,   61.6370768
0000000500,   4.00000000 ,   1.00000000 ,   4.00000000 ,   6.12194066 ,   6.12194066 ,   61.6370667
0000000501,   5.00000000 ,   1.00000000 ,   4.00000000 ,   6.12193797 ,   6.12193797 ,   61.6370631
0000000502,   6.00000000 ,   1.00000000 ,   4.00000000 ,   6.12194066 ,   6.12194066 ,   61.6370667
0000000503,   7.00000000 ,   1.00000000 ,   4.00000000 ,   6.12194811 ,   6.12194811 ,   61.6370768
0000000504,   8.00000000 ,   1.00000000 ,   4.00000000 ,   6.12195821 ,   6.12195821 ,   61.6370910
0000000505,   9.00000000 ,   1.00000000 ,   4.00000000 ,   6.12196719 ,   6.12196719 ,   61.6371041
0000000506,   10.0000000 ,   1.00000000 ,   4.00000000 ,   6.12197084 ,   6.12197084 ,   61.6371096
0000000507,   0.00000000 ,   2.00000000 ,   4.00000000 ,   6.07022769 ,   6.07022769 ,   61.9985454
0000000508,   1.00000000 ,   2.00000000 ,   4.00000000 ,   6.07021503 ,   6.07021503 ,   61.9985249
0000000509,   2.00000000 ,   2.00000000 ,   4.00000000 ,   6.07018422 ,   6.07018422 ,   61.9984762
0000000510,   3.00000000 ,   2.00000000 ,   4.00000000 ,   6.07015000 ,   6.07015000 ,   61.9984238
0000000511,   4.00000000 ,   2.00000000 ,   4.00000000 ,   6.07012499 ,   6.07012499 ,   61.9983866
0000000512,   5.00000000 ,   2.00000000 ,   4.00000000 ,   6.07011600 ,   6.07011600 ,   61.9983734
0000000513,   6.00000000 ,   2.00000000 ,   4.00000000 ,   6.07012499 ,   6.07012499 ,   61.9983866
0000000514,   7.00000000 ,   2.00000000 ,   4.00000000 ,   6.07015000 ,   6.07015000 ,   61.9984238
0000000515,   8.00000000 ,   2.00000000 ,   4.00000000 ,   6.07018422 ,   6.07018422 ,   61.9984762
0000000516,   9.00000000 ,   2.00000000 ,   4.00000000 ,   6.07021503 ,   6.07021503 ,   61.9985249
0000000517,   10.0000000 ,   2.00000000 ,   4.00000000 ,   6.07022769 ,   6.07022769 ,   61.9985454
0000000518,   0.00000000 ,   3.00000000 ,   4.00000000 ,   5.97244174 ,   5.97244174 ,   62.2990953
0000000519,   1.00000000 ,   3.00000000 ,   4.00000000 ,   5.97240228 ,   5.97240228 ,   62.2990244
0000000520,   2.00000000 ,   3.00000000 ,   4.00000000 ,   5.97230787 ,   5.97230787 ,   62.2988613
0000000521,   3.00000000 ,   3.00000000 ,   4.00000000 ,   5.97220504 ,   5.97220504 ,   62.2986911
0000000522,   4.00000000 ,   3.00000000 ,   4.00000000 ,   5.97213112 ,   5.97213112 ,   62.2985731
0000000523,   5.00000000 ,   3.00000000 ,   4.00000000 ,   5.97210482 ,   5.97210482 ,   62.2985319
0000000524,   6.00000000 ,   3.00000000 ,   4.00000000 ,   5.97213112 ,   5.97213112 ,   62.2985731
0000000525,   7.00000000 ,   3.00000000 ,   4.00000000 ,   5.97220504 ,   5.97220504 ,   62.2986911
0000000526,   8.00000000 ,   3.00000000 ,   4.00000000 ,   5.97230787 ,   5.97230787 ,   62.2988613
0000000527,   9.00000000 ,   3.00000000 ,   4.00000000 ,   5.97240228 ,   5.97240228 ,   62.2990244
0000000528,   10.0000000 ,   3.00000000 ,   4.00000000 ,   5.97244174 ,   5.97244174 ,   62.2990953
0000000529,   0.00000000 ,   4.00000000 ,   4.00000000 ,   5.85150176 ,   5.85150176 ,   62.5084381
0000000530,   1.00000000 ,   4.00000000 ,   4.00000000 ,   5.85138575 ,   5.85138575 ,   62.5082022
0000000531,   2.00000000 ,   4.00000000 ,   4.00000000 ,   5.85111483 ,   5.85111483 ,   62.5076838
0000000532,   3.00000000 ,   4.00000000 ,   4.00000000 ,   5.85082773 ,   5.85082773 ,   62.5071668
0000000533,   4.00000000 ,   4.00000000 ,   4.00000000 ,   5.85062610 ,   5.85062610 ,   62.5068210
0000000534,   5.00000000 ,   4.00000000 ,   4.00000000 ,   5.85055530 ,   5.85055530 ,   62.5067029
0000000535,   6.00000000 ,   4.00000000 ,   4.00000000 ,   5.85062610 ,   5.85062610 ,   62.5068210
0000000536,   7.00000000 ,   4.00000000 ,   4.00000000 ,   5.85082773 ,   5.85082773 ,   62.5071668
0000000537,   8.00000000 ,   4.00000000 ,   4.00000000 ,   5.85111483 ,   5.85111483 ,   62.5076838
0000000538,   9.00000000 ,   4.00000000 ,   4.00000000 ,   5.85138575 ,   5.85138575 ,   62.5082022
0000000539,   10.0000000 ,   4.00000000 ,   4.00000000 ,   5.85150176 ,   5.85150176 ,   62.5084381
0000000540,   0.00000000 ,   5.00000000 ,   4.00000000 ,   5.71172446 ,   5.71172446 ,   62.6407492
0000000541,   1.00000000 ,   5.00000000 ,   4.00000000 ,   5.71140019 ,   5.71140019 ,   62.6399761
0000000542,   2.00000000 ,   5.00000000 ,   4.00000000 ,   5.71066840 ,   5.71066840 ,   62.6383831
0000000543,   3.00000000 ,   5.00000000 ,   4.00000000 ,   5.70992006 ,   5.70992006 ,   62.6368859
0000000544,   4.00000000 ,   5.00000000 ,   4.00000000 ,   5.70940978 ,   5.70940978 ,   62.6359308
0000000545,   5.00000000 ,   5.00000000 ,   4.00000000 ,   5.70923359 ,   5.70923359 ,   62.6356131
0000000546,   6.00000000 ,   5.00000000 ,   4.00000000 ,   5.70940978 ,   5.70940978 ,   62.6359308
0000000547,   7.00000000 ,   5.00000000 ,   4.00000000 ,   5.70992006 ,   5.70992006 ,   62.6368859
0000000548,   8.00000000 ,   5.00000000 ,   4.00000000 ,   5.71066840 ,   5.71066840 ,   62.6383831
0000000549,   9.00000000 ,   5.00000000 ,   4.00000000 ,   5.71140019 ,   5.71140019 ,   62.6399761
0000000550,   10.0000000 ,   5.00000000 ,   4.00000000 ,   5.71172446 ,   5.71172446 ,   62.6407492
0000000551,   0.00000000 ,   6.00000000 ,   4.00000000 ,   5.55889559 ,   5.55889559 ,   62.7310429
0000000552,   1.00000000 ,   6.00000000 ,   4.00000000 ,   5.55803799 ,   5.55803799 ,   62.7285306
0000000553,   2.00000000 ,   6.00000000 ,   4.00000000 ,   5.55619233 ,   5.55619233 ,   62.7238036
0000000554,   3.00000000 ,   6.00000000 ,   4.00000000 ,   5.55438789 ,   5.55438789 ,   62.7196844
0000000555,   4.00000000 ,   6.00000000 ,   4.00000000 ,   5.55320096 ,   5.55320096 ,   62.7172056
0000000556,   5.00000000 ,   6.00000000 ,   4.00000000 ,   5.55279936 ,   5.55279936 ,   62.7164075
0000000557,   6.00000000 ,   6.00000000 ,   4.00000000 ,   5.55320096 ,   5.55320096 ,   62.7172056
0000000558,   7.00000000 ,   6.00000000 ,   4.00000000 ,   5.55438789 ,   5.55438789 ,   62.7196844
0000000559,   8.00000000 ,   6.00000000 ,   4.00000000 ,   5.55619233 ,   5.55619233 ,   62.7238036
0000000560,   9.00000000 ,   6.00000000 ,   4.00000000 ,   5.55803799 ,   5.55803799 ,   62.7285306
0000000561,   10.0000000 ,   6.00000000 ,   4.00000000 ,   5.55889559 ,   5.55889559 ,   62.7310429
0000000562,   0.00000000 ,   7.00000000 ,   4.00000000 ,   5.39952698 ,   5.39952698 ,   62.8348805
0000000563,   1.00000000 ,   7.00000000 ,   4.00000000 ,   5.39742028 ,   5.39742028 ,   62.8268345
0000000564,   2.00000000 ,   7.00000000 ,   4.00000000 ,   5.39317461 ,   5.39317461 ,   62.8134728
0000000565,   3.00000000 ,   7.00000000 ,   4.00000000 ,   5.38924774 ,   5.38924774 ,   62.8028742
0000000566,   4.00000000 ,   7.00000000 ,   4.00000000 ,   5.38677219 ,   5.38677219 ,   62.7969267
0000000567,   5.00000000 ,   7.00000000 ,   4.00000000 ,   5.38595408 ,   5.38595408 ,   62.7950844
0000000568,   6.00000000 ,   7.00000000 ,   4.00000000 ,   5.38677219 ,   5.38677219 ,   62.7969267
0000000569,   7.00000000 ,   7.00000000 ,   4.00000000 ,   5.38924774 ,   5.38924774 ,   62.8028742
0000000570,   8.00000000 ,   7.00000000 ,   4.00000000 ,   5.39317461 ,   5.39317461 ,   62.8134728
0000000571,   9.00000000 ,   7.00000000 ,   4.00000000 ,   5.39742028 ,   5.39742028 ,   62.8268345
0000000572,   10.0000000 ,   7.00000000 ,   4.00000000 ,   5.39952698 ,   5.39952698 ,   62.8348805
0000000573,   0.00000000 ,   8.00000000 ,   4.00000000 ,   5.22279128 ,   5.22279128 ,   63.0454951
0000000574,   1.00000000 ,   8.00000000 ,   4.00000000 ,   5.21821580 ,   5.21821580 ,   63.0206313
0000000575,   2.00000000 ,   8.00000000 ,   4.00000000 ,   5.20978879 ,   5.20978879 ,   62.9856724
0000000576,   3.00000000 ,   8.00000000 ,   4.00000000 ,   5.20249851 ,   5.20249851 ,   62.9609173
0000000577,   4.00000000 ,   8.00000000 ,   4.00000000 ,   5.19811957 ,   5.19811957 ,   62.9480964
0000000578,   5.00000000 ,   8.00000000 ,   4.00000000 ,   5.19670977 ,   5.19670977 ,   62.9442941
0000000579,   6.00000000 ,   8.00000000 ,   4.00000000 ,   5.19811957 ,   5.19811957 ,   62.9480964
0000000580,   7.00000000 ,   8.00000000 ,   4.00000000 ,   5.20249851 ,   5.20249851 ,   62.9609173
0000000581,   8.00000000 ,   8.00000000 ,   4.00000000 ,   5.20978879 ,   5.20978879 ,   62.9856724
0000000582,   9.00000000 ,   8.00000000 ,   4.00000000 ,   5.21821580 ,   5.21821580 ,   63.0206313
0000000583,   10.0000000 ,   8.00000000 ,   4.00000000 ,   5.22279128 ,   5.22279128 ,   63.0454951
0000000584,   0.00000000 ,   9.00000000 ,   4.00000000 ,   4.92408245 ,   4.92408245 ,   63.5053433
0000000585,   1.00000000 ,   9.00000000 ,   4.00000000 ,   4.91665459 ,   4.91665459 ,   63.4353174
0000000586,   2.00000000 ,   9.00000000 ,   4.00000000 ,   4.90452563 ,   4.90452563 ,   63.3555547
0000000587,   3.00000000 ,   9.00000000 ,   4.00000000 ,   4.89481296 ,   4.89481296 ,   63.3058826
0000000588,   4.00000000 ,   9.00000000 ,   4.00000000 ,   4.88927265 ,   4.88927265 ,   63.2822396
0000000589,   5.00000000 ,   9.00000000 ,   4.00000000 ,   4.88753608 ,   4.88753608 ,   63.2755305
0000000590,   6.00000000 ,   9.00000000 ,   4.00000000 ,   4.88927265 ,   4.88927265 ,   63.2822396
0000000591,   7.00000000 ,   9.00000000 ,   4.00000000 ,   4.89481296 ,   4.89481296 ,   63.3058826
0000000592,   8.00000000 ,   9.00000000 ,   4.00000000 ,   4.90452563 ,   4.90452563 ,   63.3555547
0000000593,   9.00000000 ,   9.00000000 ,   4.00000000 ,   4.91665459 ,   4.91665459 ,   63.4353174
0000000594,   10.0000000 ,   9.00000000 ,   4.00000000 ,   4.92408245 ,   4.92408245 ,   63.5053433
0000000595,   0.00000000 ,   10.0000000 ,   4.00000000 ,   4.00000000 ,   4.00000000 ,   64.2234445
0000000596,   1.00000000 ,   10.0000000 ,   4.00000000 ,   4.00000000 ,   4.00000000 ,   64.0719329
0000000597,   2.00000000 ,   10.0000000 ,   4.00000000 ,   4.00000000 ,   4.00000000 ,   63.9352410
0000000598,   3.00000000 ,   10.0000000 ,   4.00000000 ,   4.00000000 ,   4.00000000 ,   63.8595889
0000000599,   4.00000000 ,   10.0000000 ,   4.00000000 ,   4.00000000 ,   4.00000000 ,   63.8259090
0000000600,   5.00000000 ,   10.0000000 ,   4.00000000 ,   4.00000000 ,   4.00000000 ,   63.8166531
0000000601,   6.00000000 ,   10.0000000 ,   4.00000000 ,   4.00000000 ,   4.00000000 ,   63.8259090
0000000602,   7.00000000 ,   10.0000000 ,   4.00000000 ,   4.00000000 ,   4.00000000 ,   63.8595889
0000000603,   8.00000000 ,   10.0000000 ,   4.00000000 ,   4.00000000 ,   4.00000000 ,   63.9352410
0000000604,   9.00000000 ,   10.0000000 ,   4.00000000 ,   4.00000000 ,   4.00000000 ,   64.0719329
0000000605,   10.0000000 ,   10.0000000 ,   4.00000000 ,   4.00000000 ,   4.00000000 ,   64.2234445
0000000606,   0.00000000 ,   0.00000000 ,   5.00000000 ,   6.00000000 ,   6.00000000 ,   60.7765770
0000000607,   1.00000000 ,   0.00000000 ,   5.00000000 ,   6.00000000 ,   6.00000000 ,   60.7765744
0000000608,   2.00000000 ,   0.00000000 ,   5.00000000 ,   6.00000000 ,   6.00000000 ,   60.7765677
0000000609,   3.00000000 ,   0.00000000 ,   5.00000000 ,   6.00000000 ,   6.00000000 ,   60.7765602
0000000610,   4.00000000 ,   0.00000000 ,   5.00000000 ,   6.00000000 ,   6.00000000 ,   60.7765546
0000000611,   5.00000000 ,   0.00000000 ,   5.00000000 ,   6.00000000 ,   6.00000000 ,   60.7765526
0000000612,   6.00000000 ,   0.00000000 ,   5.00000000 ,   6.00000000 ,   6.00000000 ,   60.7765546
0000000613,   7.00000000 ,   0.00000000 ,   5.00000000 ,   6.00000000 ,   6.00000000 ,   60.7765602
0000000614,   8.00000000 ,   0.00000000 ,   5.00000000 ,   6.00000000 ,   6.00000000 ,   60.7765677
0000000615,   9.00000000 ,   0.00000000 ,   5.00000000 ,   6.00000000 ,   6.00000000 ,   60.7765744
0000000616,   10.0000000 ,   0.00000000 ,   5.00000000 ,   6.00000000 ,   6.00000000 ,   60.7765770
0000000617,   0.00000000 ,   1.00000000 ,   5.00000000 ,   6.15986115 ,   6.15986115 ,   60.8528829
0000000618,   1.00000000 ,   1.00000000 ,   5.00000000 ,   6.15985548 ,   6.15985548 ,   60.8528776
0000000619,   2.00000000 ,   1.00000000 ,   5.00000000 ,   6.15984136 ,   6.15984136 ,   60.8528647
0000000620,   3.00000000 ,   1.00000000 ,   5.00000000 ,   6.15982518 ,   6.15982518 ,   60.8528502
0000000621,   4.00000000 ,   1.00000000 ,   5.00000000 ,   6.15981302 ,   6.15981302 ,   60.8528394
0000000622,   5.00000000 ,   1.00000000 ,   5.00000000 ,   6.15980857 ,   6.15980857 ,   60.8528355
0000000623,   6.00000000 ,   1.00000000 ,   5.00000000 ,   6.15981302 ,   6.15981302 ,   60.8528394
0000000624,   7.00000000 ,   1.00000000 ,   5.00000000 ,   6.15982518 ,   6.15982518 ,   60.8528502
0000000625,   8.00000000 ,   1.00000000 ,   5.00000000 ,   6.15984136 ,   6.15984136 ,   60.8528647
0000000626,   9.00000000 ,   1.00000000 ,   5.00000000 ,   6.15985548 ,   6.15985548 ,   60.8528776
0000000627,   10.0000000 ,   1.00000000 ,   5.00000000 ,   6.15986115 ,   6.15986115 ,   60.8528829
0000000628,   0.00000000 ,   2.00000000 ,   5.00000000 ,   6.12977951 ,   6.12977951 ,   60.9720638
0000000629,   1.00000000 ,   2.00000000 ,   5.00000000 ,   6.12976138 ,   6.12976138 ,   60.9720473
0000000630,   2.00000000 ,   2.00000000 ,   5.00000000 ,   6.12971670 ,   6.12971670 ,   60.9720076
0000000631,   3.00000000 ,   2.00000000 ,   5.00000000 ,   6.12966619 ,   6.12966619 ,   60.9719636
0000000632,   4.00000000 ,   2.00000000 ,   5.00000000 ,   6.12962866 ,   6.12962866 ,   60.9719316
0000000633,   5.00000000 ,   2.00000000 ,   5.00000000 ,   6.12961504 ,   6.12961504 ,   60.9719201
0000000634,   6.00000000 ,   2.00000000 ,   5.00000000 ,   6.12962866 ,   6.12962866 ,   60.9719316
0000000635,   7.00000000 ,   2.00000000 ,   5.00000000 ,   6.12966619 ,   6.12966619 ,   60.9719636
0000000636,   8.00000000 ,   2.00000000 ,   5.00000000 ,   6.12971670 ,   6.12971670 ,   60.9720076
0000000637,   9.00000000 ,   2.00000000 ,   5.00000000 ,   6.12976138 ,   6.12976138 ,   60.9720473
0000000638,   10.0000000 ,   2.00000000 ,   5.00000000 ,   6.12977951 ,   6.12977951 ,   60.9720638
0000000639,   0.00000000 ,   3.00000000 ,   5.00000000 ,   6.04115126 ,   6.04115126 ,   61.0648890
0000000640,   1.00000000 ,   3.00000000 ,   5.00000000 ,   6.04109866 ,   6.04109866 ,   61.0648376
0000000641,   2.00000000 ,   3.00000000 ,   5.00000000 ,   6.04097089 ,   6.04097089 ,   61.0647161
0000000642,   3.00000000 ,   3.00000000 ,   5.00000000 ,   6.04082913 ,   6.04082913 ,   61.0645854
0000000643,   4.00000000 ,   3.00000000 ,   5.00000000 ,   6.04072554 ,   6.04072554 ,   61.0644924
0000000644,   5.00000000 ,   3.00000000 ,   5.00000000 ,   6.04068832 ,   6.04068832 ,   61.0644594
0000000645,   6.00000000 ,   3.00000000 ,   5.00000000 ,   6.04072554 ,   6.04072554 ,   61.0644924
0000000646,   7.00000000 ,   3.00000000 ,   5.00000000 ,   6.04082913 ,   6.04082913 ,   61.0645854
0000000647,   8.00000000 ,   3.00000000 ,   5.00000000 ,   6.04097089 ,   6.04097089 ,   61.0647161
0000000648,   9.00000000 ,   3.00000000 ,   5.00000000 ,   6.04109866 ,   6.04109866 ,   61.0648376
0000000649,   10.0000000 ,   3.00000000 ,   5.00000000 ,   6.04115126 ,   6.04115126 ,   61.0648890
0000000650,   0.00000000 ,   4.00000000 ,   5.00000000 ,   5.92308436 ,   5.92308436 ,   61.1090194
0000000651,   1.00000000 ,   4.00000000 ,   5.00000000 ,   5.92293949 ,   5.92293949 ,   61.1088635
0000000652,   2.00000000 ,   4.00000000 ,   5.00000000 ,   5.92259439 ,   5.92259439 ,   61.1085067
0000000653,   3.00000000 ,   4.00000000 ,   5.00000000 ,   5.92222048 ,   5.92222048 ,   61.1081364
0000000654,   4.00000000 ,   4.00000000 ,   5.00000000 ,   5.92195288 ,   5.92195288 ,   61.1078807
0000000655,   5.00000000 ,   4.00000000 ,   5.00000000 ,   5.92185789 ,   5.92185789 ,   61.1077917
0000000656,   6.00000000 ,   4.00000000 ,   5.00000000 ,   5.92195288 ,   5.92195288 ,   61.1078807
0000000657,   7.00000000 ,   4.00000000 ,   5.00000000 ,   5.92222048 ,   5.92222048 ,   61.1081364
0000000658,   8.00000000 ,   4.00000000 ,   5.00000000 ,   5.92259439 ,   5.92259439 ,   61.1085067
0000000659,   9.00000000 ,   4.00000000 ,   5.00000000 ,   5.92293949 ,   5.92293949 ,   61.1088635
0000000660,   10.0000000 ,   4.00000000 ,   5.00000000 ,   5.92308436 ,   5.92308436 ,   61.1090194
0000000661,   0.00000000 ,   5.00000000 ,   5.00000000 ,   5.78090461 ,   5.78090461 ,   61.1093070
0000000662,   1.00000000 ,   5.00000000 ,   5.00000000 ,   5.78052707 ,   5.78052707 ,   61.1088473
0000000663,   2.00000000 ,   5.00000000 ,   5.00000000 ,   5.77965052 ,   5.77965052 ,   61.1078418
0000000664,   3.00000000 ,   5.00000000 ,   5.00000000 ,   5.77872810 ,   5.77872810 ,   61.1068445
0000000665,   4.00000000 ,   5.00000000 ,   5.00000000 ,   5.77808429 ,   5.77808429 ,   61.1061810
0000000666,   5.00000000 ,   5.00000000 ,   5.00000000 ,   5.77785904 ,   5.77785904 ,   61.1059550
0000000667,   6.00000000 ,   5.00000000 ,   5.00000000 ,   5.77808429 ,   5.77808429 ,   61.1061810
0000000668,   7.00000000 ,   5.00000000 ,   5.00000000 ,   5.77872810 ,   5.77872810 ,   61.1068445
0000000669,   8.00000000 ,   5.00000000 ,   5.00000000 ,   5.77965052 ,   5.77965052 ,   61.1078418
0000000670,   9.00000000 ,   5.00000000 ,   5.00000000 ,   5.78052707 ,   5.78052707 ,   61.1088473
0000000671,   10.0000000 ,   5.00000000 ,   5.00000000 ,   5.78090461 ,   5.78090461 ,   61.1093070
0000000672,   0.00000000 ,   6.00000000 ,   5.00000000 ,   5.61992572 ,   5.61992572 ,   61.0853463
0000000673,   1.00000000 ,   6.00000000 ,   5.00000000 ,   5.61900756 ,   5.61900756 ,   61.0840341
0000000674,   2.00000000 ,   6.00000000 ,   5.00000000 ,   5.61694633 ,   5.61694633 ,   61.0813362
0000000675,   3.00000000 ,   6.00000000 ,   5.00000000 ,   5.61485229 ,   5.61485229 ,   61.0788080
0000000676,   4.00000000 ,   6.00000000 ,   5.00000000 ,   5.61343298 ,   5.61343298 ,   61.0772001
0000000677,   5.00000000 ,   6.00000000 ,   5.00000000 ,   5.61294470 ,   5.61294470 ,   61.0766663
0000000678,   6.00000000 ,   6.00000000 ,   5.00000000 ,   5.61343298 ,   5.61343298 ,   61.0772001
0000000679,   7.00000000 ,   6.00000000 ,   5.00000000 ,   5.61485229 ,   5.61485229 ,   61.0788080
0000000680,   8.00000000 ,   6.00000000 ,   5.00000000 ,   5.61694633 ,   5.61694633 ,   61.0813362
0000000681,   9.00000000 ,   6.00000000 ,   5.00000000 ,   5.61900756 ,   5.61900756 ,   61.0840341
0000000682,   10.0000000 ,   6.00000000 ,   5.00000000 ,   5.61992572 ,   5.61992572 ,   61.0853463
0000000683,   0.00000000 ,   7.00000000 ,   5.00000000 ,   5.44336510 ,   5.44336510 ,   61.0679490
0000000684,   1.00000000 ,   7.00000000 ,   5.00000000 ,   5.44133934 ,   5.44133934 ,   61.0643683
0000000685,   2.00000000 ,   7.00000000 ,   5.00000000 ,   5.43698723 ,   5.43698723 ,   61.0575993
0000000686,   3.00000000 ,   7.00000000 ,   5.00000000 ,   5.43274610 ,   5.43274610 ,   61.0516801
0000000687,   4.00000000 ,   7.00000000 ,   5.00000000 ,   5.42996594 ,   5.42996594 ,   61.0481102
0000000688,   5.00000000 ,   7.00000000 ,   5.00000000 ,   5.42902738 ,   5.42902738 ,   61.0469596
0000000689,   6.00000000 ,   7.00000000 ,   5.00000000 ,   5.42996594 ,   5.42996594 ,   61.0481102
0000000690,   7.00000000 ,   7.00000000 ,   5.00000000 ,   5.43274610 ,   5.43274610 ,   61.0516801
0000000691,   8.00000000 ,   7.00000000 ,   5.00000000 ,   5.43698723 ,   5.43698723 ,   61.0575993
0000000692,   9.00000000 ,   7.00000000 ,   5.00000000 ,   5.44133934 ,   5.44133934 ,   61.0643683
0000000693,   10.0000000 ,   7.00000000 ,   5.00000000 ,   5.44336510 ,   5.44336510 ,   61.0679490
0000000694,   0.00000000 ,   8.00000000 ,   5.00000000 ,   5.23006004 ,   5.23006004 ,   61.0988684
0000000695,   1.00000000 ,   8.00000000 ,   5.00000000 ,   5.22624886 ,   5.22624886 ,   61.0897812
0000000696,   2.00000000 ,   8.00000000 ,   5.00000000 ,   5.21851395 ,   5.21851395 ,   61.0744011
0000000697,   3.00000000 ,   8.00000000 ,   5.00000000 ,   5.21132808 ,   5.21132808 ,   61.0620074
0000000698,   4.00000000 ,   8.00000000 ,   5.00000000 ,   5.20678622 ,   5.20678622 ,   61.0549657
0000000699,   5.00000000 ,   8.00000000 ,   5.00000000 ,   5.20528350 ,   5.20528350 ,   61.0527690
0000000700,   6.00000000 ,   8.00000000 ,   5.00000000 ,   5.20678622 ,   5.20678622 ,   61.0549657
0000000701,   7.00000000 ,   8.00000000 ,   5.00000000 ,   5.21132808 ,   5.21132808 ,   61.0620074
0000000702,   8.00000000 ,   8.00000000 ,   5.00000000 ,   5.21851395 ,   5.21851395 ,   61.0744011
0000000703,   9.00000000 ,   8.00000000 ,   5.00000000 ,   5.22624886 ,   5.22624886 ,   61.0897812
0000000704,   10.0000000 ,   8.00000000 ,   5.00000000 ,   5.23006004 ,   5.23006004 ,   61.0988684
0000000705,   0.00000000 ,   9.00000000 ,   5.00000000 ,   4.86899075 ,   4.86899075 ,   61.2147101
0000000706,   1.00000000 ,   9.00000000 ,   5.00000000 ,   4.86391392 ,   4.86391392 ,   61.1945512
0000000707,   2.00000000 ,   9.00000000 ,   5.00000000 ,   4.85432696 ,   4.85432696 ,   61.1647966
0000000708,   3.00000000 ,   9.00000000 ,   5.00000000 ,   4.84587482 ,   4.84587482 ,   61.1428689
0000000709,   4.00000000 ,   9.00000000 ,   5.00000000 ,   4.84072738 ,   4.84072738 ,   61.1311471
0000000710,   5.00000000 ,   9.00000000 ,   5.00000000 ,   4.83905768 ,   4.83905768 ,   61.1276065
0000000711,   6.00000000 ,   9.00000000 ,   5.00000000 ,   4.84072738 ,   4.84072738 ,   61.1311471
0000000712,   7.00000000 ,   9.00000000 ,   5.00000000 ,   4.84587482 ,   4.84587482 ,   61.1428689
0000000713,   8.00000000 ,   9.00000000 ,   5.00000000 ,   4.85432696 ,   4.85432696 ,   61.1647966
0000000714,   9.00000000 ,   9.00000000 ,   5.00000000 ,   4.86391392 ,   4.86391392 ,   61.1945512
0000000715,   10.0000000 ,   9.00000000 ,   5.00000000 ,   4.86899075 ,   4.86899075 ,   61.2147101
0000000716,   0.00000000 ,   10.0000000 ,   5.00000000 ,   4.00000000 ,   4.00000000 ,   61.3616367
0000000717,   1.00000000 ,   10.0000000 ,   5.00000000 ,   4.00000000 ,   4.00000000 ,   61.3284207
0000000718,   2.00000000 ,   10.0000000 ,   5.00000000 ,   4.00000000 ,   4.00000000 ,   61.2857126
0000000719,   3.00000000 ,   10.0000000 ,   5.00000000 ,   4.00000000 ,   4.00000000 ,   61.2564885
0000000720,   4.00000000 ,   10.0000000 ,   5.00000000 ,   4.00000000 ,   4.00000000 ,   61.2415429
0000000721,   5.00000000 ,   10.0000000 ,   5.00000000 ,   4.00000000 ,   4.00000000 ,   61.2371254
0000000722,   6.00000000 ,   10.0000000 ,   5.00000000 ,   4.00000000 ,   4.00000000 ,   61.2415429
0000000723,   7.00000000 ,   10.0000000 ,   5.00000000 ,   4.00000000 ,   4.00000000 ,   61.2564885
0000000724,   8.00000000 ,   10.0000000 ,   5.00000000 ,   4.00000000 ,   4.00000000 ,   61.2857126
0000000725,   9.00000000 ,   10.0000000 ,   5.00000000 ,   4.00000000 ,   4.00000000 ,   61.3284207
0000000726,   10.0000000 ,   10.0000000 ,   5.00000000 ,   4.00000000 ,   4.00000000 ,   61.3616367
0000000727,   0.00000000 ,   0.00000000 ,   6.00000000 ,   6.00000000 ,   6.00000000 ,   60.3243037
0000000728,   1.00000000 ,   0.00000000 ,   6.00000000 ,   6.00000000 ,   6.00000000 ,   60.3243020
0000000729,   2.00000000 ,   0.00000000 ,   6.00000000 ,   6.00000000 ,   6.00000000 ,   60.3242977
0000000730,   3.00000000 ,   0.00000000 ,   6.00000000 ,   6.00000000 ,   6.00000000 ,   60.3242927
0000000731,   4.00000000 ,   0.00000000 ,   6.00000000 ,   6.00000000 ,   6.00000000 ,   60.3242889
0000000732,   5.00000000 ,   0.00000000 ,   6.00000000 ,   6.00000000 ,   6.00000000 ,   60.3242876
0000000733,   6.00000000 ,   0.00000000 ,   6.00000000 ,   6.00000000 ,   6.00000000 ,   60.3242889
0000000734,   7.00000000 ,   0.00000000 ,   6.00000000 ,   6.00000000 ,   6.00000000 ,   60.3242927
0000000735,   8.00000000 ,   0.00000000 ,   6.00000000 ,   6.00000000 ,   6.00000000 ,   60.3242977
0000000736,   9.00000000 ,   0.00000000 ,   6.00000000 ,   6.00000000 ,   6.00000000 ,   60.3243020
0000000737,   10.0000000 ,   0.00000000 ,   6.00000000 ,   6.00000000 ,   6.00000000 ,   60.3243037
0000000738,   0.00000000 ,   1.00000000 ,   6.00000000 ,   5.96465182 ,   5.96465182 ,   60.3323626
0000000739,   1.00000000 ,   1.00000000 ,   6.00000000 ,   5.96464897 ,   5.96464897 ,   60.3323595
0000000740,   2.00000000 ,   1.00000000 ,   6.00000000 ,   5.96464183 ,   5.96464183 ,   60.3323517
0000000741,   3.00000000 ,   1.00000000 ,   6.00000000 ,   5.96463359 ,   5.96463359 ,   60.3323428
0000000742,   4.00000000 ,   1.00000000 ,   6.00000000 ,   5.96462735 ,   5.96462735 ,   60.3323361
0000000743,   5.00000000 ,   1.00000000 ,   6.00000000 ,   5.96462506 ,   5.96462506 ,   60.3323337
0000000744,   6.00000000 ,   1.00000000 ,   6.00000000 ,   5.96462735 ,   5.96462735 ,   60.3323361
0000000745,   7.00000000 ,   1.00000000 ,   6.00000000 ,   5.96463359 ,   5.96463359 ,   60.3323428
0000000746,   8.00000000 ,   1.00000000 ,   6.00000000 ,   5.96464183 ,   5.96464183 ,   60.3323517
0000000747,   9.00000000 ,   1.00000000 ,   6.00000000 ,   5.96464897 ,   5.96464897 ,   60.3323595
0000000748,   10.0000000 ,   1.00000000 ,   6.00000000 ,   5.96465182 ,   5.96465182 ,   60.3323626
0000000749,   0.00000000 ,   2.00000000 ,   6.00000000 ,   5.83834848 ,   5.83834848 ,   60.3267902
0000000750,   1.00000000 ,   2.00000000 ,   6.00000000 ,   5.83833967 ,   5.83833967 ,   60.3267811
0000000751,   2.00000000 ,   2.00000000 ,   6.00000000 ,   5.83831784 ,   5.83831784 ,   60.3267588
0000000752,   3.00000000 ,   2.00000000 ,   6.00000000 ,   5.83829297 ,   5.83829297 ,   60.3267337
0000000753,   4.00000000 ,   2.00000000 ,   6.00000000 ,   5.83827437 ,   5.83827437 ,   60.3267152
0000000754,   5.00000000 ,   2.00000000 ,   6.00000000 ,   5.83826759 ,   5.83826759 ,   60.3267086
0000000755,   6.00000000 ,   2.00000000 ,   6.00000000 ,   5.83827437 ,   5.83827437 ,   60.3267152
0000000756,   7.00000000 ,   2.00000000 ,   6.00000000 ,   5.83829297 ,   5.83829297 ,   60.3267337
0000000757,   8.00000000 ,   2.00000000 ,   6.00000000 ,   5.83831784 ,   5.83831784 ,   60.3267588
0000000758,   9.00000000 ,   2.00000000 ,   6.00000000 ,   5.83833967 ,   5.83833967 ,   60.3267811
0000000759,   10.0000000 ,   2.00000000 ,   6.00000000 ,   5.83834848 ,   5.83834848 ,   60.3267902
0000000760,   0.00000000 ,   3.00000000 ,   6.00000000 ,   5.68415118 ,   5.68415118 ,   60.2846607
0000000761,   1.00000000 ,   3.00000000 ,   6.00000000 ,   5.68412637 ,   5.68412637 ,   60.2846338
0000000762,   2.00000000 ,   3.00000000 ,   6.00000000 ,   5.68406565 ,   5.68406565 ,   60.2845691
0000000763,   3.00000000 ,   3.00000000 ,   6.00000000 ,   5.68399767 ,   5.68399767 ,   60.2844981
0000000764,   4.00000000 ,   3.00000000 ,   6.00000000 ,   5.68394759 ,   5.68394759 ,   60.2844467
0000000765,   5.00000000 ,   3.00000000 ,   6.00000000 ,   5.68392951 ,   5.68392951 ,   60.2844283
0000000766,   6.00000000 ,   3.00000000 ,   6.00000000 ,   5.68394759 ,   5.68394759 ,   60.2844467
0000000767,   7.00000000 ,   3.00000000 ,   6.00000000 ,   5.68399767 ,   5.68399767 ,   60.2844981
0000000768,   8.00000000 ,   3.00000000 ,   6.00000000 ,   5.68406565 ,   5.68406565 ,   60.2845691
0000000769,   9.00000000 ,   3.00000000 ,   6.00000000 ,   5.68412637 ,   5.68412637 ,   60.2846338
0000000770,   10.0000000 ,   3.00000000 ,   6.00000000 ,   5.68415118 ,   5.68415118 ,   60.2846607
0000000771,   0.00000000 ,   4.00000000 ,   6.00000000 ,   5.51450552 ,   5.51450552 ,   60.1993807
0000000772,   1.00000000 ,   4.00000000 ,   6.00000000 ,   5.51443919 ,   5.51443919 ,   60.1993038
0000000773,   2.00000000 ,   4.00000000 ,   6.00000000 ,   5.51427957 ,   5.51427957 ,   60.1991234
0000000774,   3.00000000 ,   4.00000000 ,   6.00000000 ,   5.51410458 ,   5.51410458 ,   60.1989311
0000000775,   4.00000000 ,   4.00000000 ,   6.00000000 ,   5.51397807 ,   5.51397807 ,   60.1987952
0000000776,   5.00000000 ,   4.00000000 ,   6.00000000 ,   5.51393290 ,   5.51393290 ,   60.1987474
0000000777,   6.00000000 ,   4.00000000 ,   6.00000000 ,   5.51397807 ,   5.51397807 ,   60.1987952
0000000778,   7.00000000 ,   4.00000000 ,   6.00000000 ,   5.51410458 ,   5.51410458 ,   60.1989311
0000000779,   8.00000000 ,   4.00000000 ,   6.00000000 ,   5.51427957 ,   5.51427957 ,   60.1991234
0000000780,   9.00000000 ,   4.00000000 ,   6.00000000 ,   5.51443919 ,   5.51443919 ,   60.1993038
0000000781,   10.0000000 ,   4.00000000 ,   6.00000000 ,   5.51450552 ,   5.51450552 ,   60.1993807
0000000782,   0.00000000 ,   5.00000000 ,   6.00000000 ,   5.33106668 ,   5.33106668 ,   60.0765035
0000000783,   1.00000000 ,   5.00000000 ,   6.00000000 ,   5.33089956 ,   5.33089956 ,   60.0762925
0000000784,   2.00000000 ,   5.00000000 ,   6.00000000 ,   5.33050587 ,   5.33050587 ,   60.0758131
0000000785,   3.00000000 ,   5.00000000 ,   6.00000000 ,   5.33008507 ,   5.33008507 ,   60.0753201
0000000786,   4.00000000 ,   5.00000000 ,   6.00000000 ,   5.32978754 ,   5.32978754 ,   60.0749823
0000000787,   5.00000000 ,   5.00000000 ,   6.00000000 ,   5.32968267 ,   5.32968267 ,   60.0748653
0000000788,   6.00000000 ,   5.00000000 ,   6.00000000 ,   5.32978754 ,   5.32978754 ,   60.0749823
0000000789,   7.00000000 ,   5.00000000 ,   6.00000000 ,   5.33008507 ,   5.33008507 ,   60.0753201
0000000790,   8.00000000 ,   5.00000000 ,   6.00000000 ,   5.33050587 ,   5.33050587 ,   60.0758131
0000000791,   9.00000000 ,   5.00000000 ,   6.00000000 ,   5.33089956 ,   5.33089956 ,   60.0762925
0000000792,   10.0000000 ,   5.00000000 ,   6.00000000 ,   5.33106668 ,   5.33106668 ,   60.0765035
0000000793,   0.00000000 ,   6.00000000 ,   6.00000000 ,   5.13587252 ,   5.13587252 ,   59.9289773
0000000794,   1.00000000 ,   6.00000000 ,   6.00000000 ,   5.13548214 ,   5.13548214 ,   59.9284261
0000000795,   2.00000000 ,   6.00000000 ,   6.00000000 ,   5.13458700 ,   5.13458700 ,   59.9272272
0000000796,   3.00000000 ,   6.00000000 ,   6.00000000 ,   5.13365839 ,   5.13365839 ,   59.9260464
0000000797,   4.00000000 ,   6.00000000 ,   6.00000000 ,   5.13301828 ,   5.13301828 ,   59.9252657
0000000798,   5.00000000 ,   6.00000000 ,   6.00000000 ,   5.13279596 ,   5.13279596 ,   59.9250008
0000000799,   6.00000000 ,   6.00000000 ,   6.00000000 ,   5.13301828 ,   5.13301828 ,   59.9252657
0000000800,   7.00000000 ,   6.00000000 ,   6.00000000 ,   5.13365839 ,   5.13365839 ,   59.9260464
0000000801,   8.00000000 ,   6.00000000 ,   6.00000000 ,   5.13458700 ,   5.13458700 ,   59.9272272
0000000802,   9.00000000 ,   6.00000000 ,   6.00000000 ,   5.13548214 ,   5.13548214 ,   59.9284261
0000000803,   10.0000000 ,   6.00000000 ,   6.00000000 ,   5.13587252 ,   5.13587252 ,   59.9289773
0000000804,   0.00000000 ,   7.00000000 ,   6.00000000 ,   4.93066543 ,   4.93066543 ,   59.7751554
0000000805,   1.00000000 ,   7.00000000 ,   6.00000000 ,   4.92984578 ,   4.92984578 ,   59.7738081
0000000806,   2.00000000 ,   7.00000000 ,   6.00000000 ,   4.92802871 ,   4.92802871 ,   59.7710408
0000000807,   3.00000000 ,   7.00000000 ,   6.00000000 ,   4.92620717 ,   4.92620717 ,   59.7684524
0000000808,   4.00000000 ,   7.00000000 ,   6.00000000 ,   4.92498646 ,   4.92498646 ,   59.7668095
0000000809,   5.00000000 ,   7.00000000 ,   6.00000000 ,   4.92456927 ,   4.92456927 ,   59.7662648
0000000810,   6.00000000 ,   7.00000000 ,   6.00000000 ,   4.92498646 ,   4.92498646 ,   59.7668095
0000000811,   7.00000000 ,   7.00000000 ,   6.00000000 ,   4.92620717 ,   4.92620717 ,   59.7684524
0000000812,   8.00000000 ,   7.00000000 ,   6.00000000 ,   4.92802871 ,   4.92802871 ,   59.7710408
0000000813,   9.00000000 ,   7.00000000 ,   6.00000000 ,   4.92984578 ,   4.92984578 ,   59.7738081
0000000814,   10.0000000 ,   7.00000000 ,   6.00000000 ,   4.93066543 ,   4.93066543 ,   59.7751554
0000000815,   0.00000000 ,   8.00000000 ,   6.00000000 ,   4.70890422 ,   4.70890422 ,   59.6387662
0000000816,   1.00000000 ,   8.00000000 ,   6.00000000 ,   4.70745458 ,   4.70745458 ,   59.6357796
0000000817,   2.00000000 ,   8.00000000 ,   6.00000000 ,   4.70437070 ,   4.70437070 ,   59.6300775
0000000818,   3.00000000 ,   8.00000000 ,   6.00000000 ,   4.70139337 ,   4.70139337 ,   59.6250497
0000000819,   4.00000000 ,   8.00000000 ,   6.00000000 ,   4.69945636 ,   4.69945636 ,   59.6219978
0000000820,   5.00000000 ,   8.00000000 ,   6.00000000 ,   4.69880526 ,   4.69880526 ,   59.6210107
0000000821,   6.00000000 ,   8.00000000 ,   6.00000000 ,   4.69945636 ,   4.69945636 ,   59.6219978
0000000822,   7.00000000 ,   8.00000000 ,   6.00000000 ,   4.70139337 ,   4.70139337 ,   59.6250497
0000000823,   8.00000000 ,   8.00000000 ,   6.00000000 ,   4.70437070 ,   4.70437070 ,   59.6300775
0000000824,   9.00000000 ,   8.00000000 ,   6.00000000 ,   4.70745458 ,   4.70745458 ,   59.6357796
0000000825,   10.0000000 ,   8.00000000 ,   6.00000000 ,   4.70890422 ,   4.70890422 ,   59.6387662
0000000826,   0.00000000 ,   9.00000000 ,   6.00000000 ,   4.43568377 ,   4.43568377 ,   59.5482800
0000000827,   1.00000000 ,   9.00000000 ,   6.00000000 ,   4.43389599 ,   4.43389599 ,   59.5426341
0000000828,   2.00000000 ,   9.00000000 ,   6.00000000 ,   4.43026968 ,   4.43026968 ,   59.5327456
0000000829,   3.00000000 ,   9.00000000 ,   6.00000000 ,   4.42689912 ,   4.42689912 ,   59.5245456
0000000830,   4.00000000 ,   9.00000000 ,   6.00000000 ,   4.42476682 ,   4.42476682 ,   59.5197802
0000000831,   5.00000000 ,   9.00000000 ,   6.00000000 ,   4.42406084 ,   4.42406084 ,   59.5182742
0000000832,   6.00000000 ,   9.00000000 ,   6.00000000 ,   4.42476682 ,   4.42476682 ,   59.5197802
0000000833,   7.00000000 ,   9.00000000 ,   6.00000000 ,   4.42689912 ,   4.42689912 ,   59.5245456
0000000834,   8.00000000 ,   9.00000000 ,   6.00000000 ,   4.43026968 ,   4.43026968 ,   59.5327456
0000000835,   9.00000000 ,   9.00000000 ,   6.00000000 ,   4.43389599 ,   4.43389599 ,   59.5426341
0000000836,   10.0000000 ,   9.00000000 ,   6.00000000 ,   4.43568377 ,   4.43568377 ,   59.5482800
0000000837,   0.00000000 ,   10.0000000 ,   6.00000000 ,   4.00000000 ,   4.00000000 ,   59.5322624
0000000838,   1.00000000 ,   10.0000000 ,   6.00000000 ,   4.00000000 ,   4.00000000 ,   59.5243369
0000000839,   2.00000000 ,   10.0000000 ,   6.00000000 ,   4.00000000 ,   4.00000000 ,   59.5114825
0000000840,   3.00000000 ,   10.0000000 ,   6.00000000 ,   4.00000000 ,   4.00000000 ,   59.5012908
0000000841,   4.00000000 ,   10.0000000 ,   6.00000000 ,   4.00000000 ,   4.00000000 ,   59.4955323
0000000842,   5.00000000 ,   10.0000000 ,   6.00000000 ,   4.00000000 ,   4.00000000 ,   59.4937380
0000000843,   6.00000000 ,   10.0000000 ,   6.00000000 ,   4.00000000 ,   4.00000000 ,   59.4955323
0000000844,   7.00000000 ,   10.0000000 ,   6.00000000 ,   4.00000000 ,   4.00000000 ,   59.5012908
0000000845,   8.00000000 ,   10.0000000 ,   6.00000000 ,   4.00000000 ,   4.00000000 ,   59.5114825
0000000846,   9.00000000 ,   10.0000000 ,   6.00000000 ,   4.00000000 ,   4.00000000 ,   59.5243369
0000000847,   10.0000000 ,   10.0000000 ,   6.00000000 ,   4.00000000 ,   4.00000000 ,   59.5322624
0000000848,   0.00000000 ,   0.00000000 ,   7.00000000 ,   6.00000000 ,   6.00000000 ,   60.0051356
0000000849,   1.00000000 ,   0.00000000 ,   7.00000000 ,   6.00000000 ,   6.00000000 ,   60.0051354
0000000850,   2.00000000 ,   0.00000000 ,   7.00000000 ,   6.00000000 ,   6.00000000 ,   60.0051351
0000000851,   3.00000000 ,   0.00000000 ,   7.00000000 ,   6.00000000 ,   6.00000000 ,   60.0051347
0000000852,   4.00000000 ,   0.00000000 ,   7.00000000 ,   6.00000000 ,   6.00000000 ,   60.0051345
0000000853,   5.00000000 ,   0.00000000 ,   7.00000000 ,   6.00000000 ,   6.00000000 ,   60.0051344
0000000854,   6.00000000 ,   0.00000000 ,   7.00000000 ,   6.00000000 ,   6.00000000 ,   60.0051345
0000000855,   7.00000000 ,   0.00000000 ,   7.00000000 ,   6.00000000 ,   6.00000000 ,   60.0051347
0000000856,   8.00000000 ,   0.00000000 ,   7.00000000 ,   6.00000000 ,   6.00000000 ,   60.0051351
0000000857,   9.00000000 ,   0.00000000 ,   7.00000000 ,   6.00000000 ,   6.00000000 ,   60.0051354
0000000858,   10.0000000 ,   0.00000000 ,   7.00000000 ,   6.00000000 ,   6.00000000 ,   60.0051356
0000000859,   0.00000000 ,   1.00000000 ,   7.00000000 ,   5.80777998 ,   5.80777998 ,   59.9856774
0000000860,   1.00000000 ,   1.00000000 ,   7.00000000 ,   5.80777999 ,   5.80777999 ,   59.9856770
0000000861,   2.00000000 ,   1.00000000 ,   7.00000000 ,   5.80778002 ,   5.80778002 ,   59.9856759
0000000862,   3.00000000 ,   1.00000000 ,   7.00000000 ,   5.80778006 ,   5.80778006 ,   59.9856747
0000000863,   4.00000000 ,   1.00000000 ,   7.00000000 ,   5.80778008 ,   5.80778008 ,   59.9856738
0000000864,   5.00000000 ,   1.00000000 ,   7.00000000 ,   5.80778010 ,   5.80778010 ,   59.9856734
0000000865,   6.00000000 ,   1.00000000 ,   7.00000000 ,   5.80778008 ,   5.80778008 ,   59.9856738
0000000866,   7.00000000 ,   1.00000000 ,   7.00000000 ,   5.80778006 ,   5.80778006 ,   59.9856747
0000000867,   8.00000000 ,   1.00000000 ,   7.00000000 ,   5.80778002 ,   5.80778002 ,   59.9856759
0000000868,   9.00000000 ,   1.00000000 ,   7.00000000 ,   5.80777999 ,   5.80777999 ,   59.9856770
0000000869,   10.0000000 ,   1.00000000 ,   7.00000000 ,   5.80777998 ,   5.80777998 ,   59.9856774
0000000870,   0.00000000 ,   2.00000000 ,   7.00000000 ,   5.61435036 ,   5.61435036 ,   59.8995386
0000000871,   1.00000000 ,   2.00000000 ,   7.00000000 ,   5.61435039 ,   5.61435039 ,   59.8995373
0000000872,   2.00000000 ,   2.00000000 ,   7.00000000 ,   5.61435046 ,   5.61435046 ,   59.8995341
0000000873,   3.00000000 ,   2.00000000 ,   7.00000000 ,   5.61435055 ,   5.61435055 ,   59.8995305
0000000874,   4.00000000 ,   2.00000000 ,   7.00000000 ,   5.61435062 ,   5.61435062 ,   59.8995277
0000000875,   5.00000000 ,   2.00000000 ,   7.00000000 ,   5.61435064 ,   5.61435064 ,   59.8995268
0000000876,   6.00000000 ,   2.00000000 ,   7.00000000 ,   5.61435062 ,   5.61435062 ,   59.8995277
0000000877,   7.00000000 ,   2.00000000 ,   7.00000000 ,   5.61435055 ,   5.61435055 ,   59.8995305
0000000878,   8.00000000 ,   2.00000000 ,   7.00000000 ,   5.61435046 ,   5.61435046 ,   59.8995341
0000000879,   9.00000000 ,   2.00000000 ,   7.00000000 ,   5.61435039 ,   5.61435039 ,   59.8995373
0000000880,   10.0000000 ,   2.00000000 ,   7.00000000 ,   5.61435036 ,   5.61435036 ,   59.8995386
0000000881,   0.00000000 ,   3.00000000 ,   7.00000000 ,   5.41939482 ,   5.41939482 ,   59.7499457
0000000882,   1.00000000 ,   3.00000000 ,   7.00000000 ,   5.41939487 ,   5.41939487 ,   59.7499419
0000000883,   2.00000000 ,   3.00000000 ,   7.00000000 ,   5.41939501 ,   5.41939501 ,   59.7499327
0000000884,   3.00000000 ,   3.00000000 ,   7.00000000 ,   5.41939518 ,   5.41939518 ,   59.7499224
0000000885,   4.00000000 ,   3.00000000 ,   7.00000000 ,   5.41939532 ,   5.41939532 ,   59.7499149
0000000886,   5.00000000 ,   3.00000000 ,   7.00000000 ,   5.41939537 ,   5.41939537 ,   59.7499122
0000000887,   6.00000000 ,   3.00000000 ,   7.00000000 ,   5.41939532 ,   5.41939532 ,   59.7499149
0000000888,   7.00000000 ,   3.00000000 ,   7.00000000 ,   5.41939518 ,   5.41939518 ,   59.7499224
0000000889,   8.00000000 ,   3.00000000 ,   7.00000000 ,   5.41939501 ,   5.41939501 ,   59.7499327
0000000890,   9.00000000 ,   3.00000000 ,   7.00000000 ,   5.41939487 ,   5.41939487 ,   59.7499419
0000000891,   10.0000000 ,   3.00000000 ,   7.00000000 ,   5.41939482 ,   5.41939482 ,   59.7499457
0000000892,   0.00000000 ,   4.00000000 ,   7.00000000 ,   5.22267377 ,   5.22267377 ,   59.5440049
0000000893,   1.00000000 ,   4.00000000 ,   7.00000000 ,   5.22267387 ,   5.22267387 ,   59.5439941
0000000894,   2.00000000 ,   4.00000000 ,   7.00000000 ,   5.22267413 ,   5.22267413 ,   59.5439686
0000000895,   3.00000000 ,   4.00000000 ,   7.00000000 ,   5.22267444 ,   5.22267444 ,   59.5439408
0000000896,   4.00000000 ,   4.00000000 ,   7.00000000 ,   5.22267469 ,   5.22267469 ,   59.5439210
0000000897,   5.00000000 ,   4.00000000 ,   7.00000000 ,   5.22267478 ,   5.22267478 ,   59.5439139
0000000898,   6.00000000 ,   4.00000000 ,   7.00000000 ,   5.22267469 ,   5.22267469 ,   59.5439210
0000000899,   7.00000000 ,   4.00000000 ,   7.00000000 ,   5.22267444 ,   5.22267444 ,   59.5439408
0000000900,   8.00000000 ,   4.00000000 ,   7.00000000 ,   5.22267413 ,   5.22267413 ,   59.5439686
0000000901,   9.00000000 ,   4.00000000 ,   7.00000000 ,   5.22267387 ,   5.22267387 ,   59.5439941
0000000902,   10.0000000 ,   4.00000000 ,   7.00000000 ,   5.22267377 ,   5.22267377 ,   59.5440049
0000000903,   0.00000000 ,   5.00000000 ,   7.00000000 ,   5.02402334 ,   5.02402334 ,   59.2910225
0000000904,   1.00000000 ,   5.00000000 ,   7.00000000 ,   5.02402352 ,   5.02402352 ,   59.2909933
0000000905,   2.00000000 ,   5.00000000 ,   7.00000000 ,   5.02402398 ,   5.02402398 ,   59.2909255
0000000906,   3.00000000 ,   5.00000000 ,   7.00000000 ,   5.02402452 ,   5.02402452 ,   59.2908542
0000000907,   4.00000000 ,   5.00000000 ,   7.00000000 ,   5.02402493 ,   5.02402493 ,   59.2908043
0000000908,   5.00000000 ,   5.00000000 ,   7.00000000 ,   5.02402508 ,   5.02402508 ,   59.2907869
0000000909,   6.00000000 ,   5.00000000 ,   7.00000000 ,   5.02402493 ,   5.02402493 ,   59.2908043
0000000910,   7.00000000 ,   5.00000000 ,   7.00000000 ,   5.02402452 ,   5.02402452 ,   59.2908542
0000000911,   8.00000000 ,   5.00000000 ,   7.00000000 ,   5.02402398 ,   5.02402398 ,   59.2909255
0000000912,   9.00000000 ,   5.00000000 ,   7.00000000 ,   5.02402352 ,   5.02402352 ,   59.2909933
0000000913,   10.0000000 ,   5.00000000 ,   7.00000000 ,   5.02402334 ,   5.02402334 ,   59.2910225
0000000914,   0.00000000 ,   6.00000000 ,   7.00000000 ,   4.82334380 ,   4.82334380 ,   59.0013861
0000000915,   1.00000000 ,   6.00000000 ,   7.00000000 ,   4.82334411 ,   4.82334411 ,   59.0013104
0000000916,   2.00000000 ,   6.00000000 ,   7.00000000 ,   4.82334487 ,   4.82334487 ,   59.0011407
0000000917,   3.00000000 ,   6.00000000 ,   7.00000000 ,   4.82334574 ,   4.82334574 ,   59.0009683
0000000918,   4.00000000 ,   6.00000000 ,   7.00000000 ,   4.82334639 ,   4.82334639 ,   59.0008513
0000000919,   5.00000000 ,   6.00000000 ,   7.00000000 ,   4.82334663 ,   4.82334663 ,   59.0008111
0000000920,   6.00000000 ,   6.00000000 ,   7.00000000 ,   4.82334639 ,   4.82334639 ,   59.0008513
0000000921,   7.00000000 ,   6.00000000 ,   7.00000000 ,   4.82334574 ,   4.82334574 ,   59.0009683
0000000922,   8.00000000 ,   6.00000000 ,   7.00000000 ,   4.82334487 ,   4.82334487 ,   59.0011407
0000000923,   9.00000000 ,   6.00000000 ,   7.00000000 ,   4.82334411 ,   4.82334411 ,   59.0013104
0000000924,   10.0000000 ,   6.00000000 ,   7.00000000 ,   4.82334380 ,   4.82334380 ,   59.0013861
0000000925,   0.00000000 ,   7.00000000 ,   7.00000000 ,   4.62058627 ,   4.62058627 ,   58.6861586
0000000926,   1.00000000 ,   7.00000000 ,   7.00000000 ,   4.62058676 ,   4.62058676 ,   58.6859750
0000000927,   2.00000000 ,   7.00000000 ,   7.00000000 ,   4.62058791 ,   4.62058791 ,   58.6855807
0000000928,   3.00000000 ,   7.00000000 ,   7.00000000 ,   4.62058919 ,   4.62058919 ,   58.6851963
0000000929,   4.00000000 ,   7.00000000 ,   7.00000000 ,   4.62059013 ,   4.62059013 ,   58.6849440
0000000930,   5.00000000 ,   7.00000000 ,   7.00000000 ,   4.62059047 ,   4.62059047 ,   58.6848587
0000000931,   6.00000000 ,   7.00000000 ,   7.00000000 ,   4.62059013 ,   4.62059013 ,   58.6849440
0000000932,   7.00000000 ,   7.00000000 ,   7.00000000 ,   4.62058919 ,   4.62058919 ,   58.6851963
0000000933,   8.00000000 ,   7.00000000 ,   7.00000000 ,   4.62058791 ,   4.62058791 ,   58.6855807
0000000934,   9.00000000 ,   7.00000000 ,   7.00000000 ,   4.62058676 ,   4.62058676 ,   58.6859750
0000000935,   10.0000000 ,   7.00000000 ,   7.00000000 ,   4.62058627 ,   4.62058627 ,   58.6861586
0000000936,   0.00000000 ,   8.00000000 ,   7.00000000 ,   4.41574227 ,   4.41574227 ,   58.3584548
0000000937,   1.00000000 ,   8.00000000 ,   7.00000000 ,   4.41574291 ,   4.41574291 ,   58.3580497
0000000938,   2.00000000 ,   8.00000000 ,   7.00000000 ,   4.41574441 ,   4.41574441 ,   58.3572234
0000000939,   3.00000000 ,   8.00000000 ,   7.00000000 ,   4.41574601 ,   4.41574601 ,   58.3564529
0000000940,   4.00000000 ,   8.00000000 ,   7.00000000 ,   4.41574714 ,   4.41574714 ,   58.3559641
0000000941,   5.00000000 ,   8.00000000 ,   7.00000000 ,   4.41574755 ,   4.41574755 ,   58.3558020
0000000942,   6.00000000 ,   8.00000000 ,   7.00000000 ,   4.41574714 ,   4.41574714 ,   58.3559641
0000000943,   7.00000000 ,   8.00000000 ,   7.00000000 ,   4.41574601 ,   4.41574601 ,   58.3564529
0000000944,   8.00000000 ,   8.00000000 ,   7.00000000 ,   4.41574441 ,   4.41574441 ,   58.3572234
0000000945,   9.00000000 ,   8.00000000 ,   7.00000000 ,   4.41574291 ,   4.41574291 ,   58.3580497
0000000946,   10.0000000 ,   8.00000000 ,   7.00000000 ,   4.41574227 ,   4.41574227 ,   58.3584548
0000000947,   0.00000000 ,   9.00000000 ,   7.00000000 ,   4.20884200 ,   4.20884200 ,   58.0472266
0000000948,   1.00000000 ,   9.00000000 ,   7.00000000 ,   4.20884262 ,   4.20884262 ,   58.0464595
0000000949,   2.00000000 ,   9.00000000 ,   7.00000000 ,   4.20884398 ,   4.20884398 ,   58.0449791
0000000950,   3.00000000 ,   9.00000000 ,   7.00000000 ,   4.20884537 ,   4.20884537 ,   58.0436558
0000000951,   4.00000000 ,   9.00000000 ,   7.00000000 ,   4.20884632 ,   4.20884632 ,   58.0428422
0000000952,   5.00000000 ,   9.00000000 ,   7.00000000 ,   4.20884666 ,   4.20884666 ,   58.0425769
0000000953,   6.00000000 ,   9.00000000 ,   7.00000000 ,   4.20884632 ,   4.20884632 ,   58.0428422
0000000954,   7.00000000 ,   9.00000000 ,   7.00000000 ,   4.20884537 ,   4.20884537 ,   58.0436558
0000000955,   8.00000000 ,   9.00000000 ,   7.00000000 ,   4.20884398 ,   4.20884398 ,   58.0449791
0000000956,   9.00000000 ,   9.00000000 ,   7.00000000 ,   4.20884262 ,   4.20884262 ,   58.0464595
0000000957,   10.0000000 ,   9.00000000 ,   7.00000000 ,   4.20884200 ,   4.20884200 ,   58.0472266
0000000958,   0.00000000 ,   10.0000000 ,   7.00000000 ,   4.00000000 ,   4.00000000 ,   57.9259170
0000000959,   1.00000000 ,   10.0000000 ,   7.00000000 ,   4.00000000 ,   4.00000000 ,   57.9249043
0000000960,   2.00000000 ,   10.0000000 ,   7.00000000 ,   4.00000000 ,   4.00000000 ,   57.9230181
0000000961,   3.00000000 ,   10.0000000 ,   7.00000000 ,   4.00000000 ,   4.00000000 ,   57.9213696
0000000962,   4.00000000 ,   10.0000000 ,   7.00000000 ,   4.00000000 ,   4.00000000 ,   57.9203709
0000000963,   5.00000000 ,   10.0000000 ,   7.00000000 ,   4.00000000 ,   4.00000000 ,   57.9200478
0000000964,   6.00000000 ,   10.0000000 ,   7.00000000 ,   4.00000000 ,   4.00000000 ,   57.9203709
0000000965,   7.00000000 ,   10.0000000 ,   7.00000000 ,   4.00000000 ,   4.00000000 ,   57.9213696
0000000966,   8.00000000 ,   10.0000000 ,   7.00000000 ,   4.00000000 ,   4.00000000 ,   57.9230181
0000000967,   9.00000000 ,   10.0000000 ,   7.00000000 ,   4.00000000 ,   4.00000000 ,   57.9249043
0000000968,   10.0000000 ,   10.0000000 ,   7.00000000 ,   4.00000000 ,   4.00000000 ,   57.9259170
0000000969,   0.00000000 ,   0.00000000 ,   8.00000000 ,   6.00000000 ,   6.00000000 ,   59.8140514
0000000970,   1.00000000 ,   0.00000000 ,   8.00000000 ,   6.00000000 ,   6.00000000 ,   59.8140513
0000000971,   2.00000000 ,   0.00000000 ,   8.00000000 ,   6.00000000 ,   6.00000000 ,   59.8140513
0000000972,   3.00000000 ,   0.00000000 ,   8.00000000 ,   6.00000000 ,   6.00000000 ,   59.8140512
0000000973,   4.00000000 ,   0.00000000 ,   8.00000000 ,   6.00000000 ,   6.00000000 ,   59.8140512
0000000974,   5.00000000 ,   0.00000000 ,   8.00000000 ,   6.00000000 ,   6.00000000 ,   59.8140512
0000000975,   6.00000000 ,   0.00000000 ,   8.00000000 ,   6.00000000 ,   6.00000000 ,   59.8140512
0000000976,   7.00000000 ,   0.00000000 ,   8.00000000 ,   6.00000000 ,   6.00000000 ,   59.8140512
0000000977,   8.00000000 ,   0.00000000 ,   8.00000000 ,   6.00000000 ,   6.00000000 ,   59.8140513
0000000978,   9.00000000 ,   0.00000000 ,   8.00000000 ,   6.00000000 ,   6.00000000 ,   59.8140513
0000000979,   10.0000000 ,   0.00000000 ,   8.00000000 ,   6.00000000 ,   6.00000000 ,   59.8140514
0000000980,   0.00000000 ,   1.00000000 ,   8.00000000 ,   5.80972398 ,   5.80972398 ,   59.3167060
0000000981,   1.00000000 ,   1.00000000 ,   8.00000000 ,   5.80972399 ,   5.80972399 ,   59.3167060
0000000982,   2.00000000 ,   1.00000000 ,   8.00000000 ,   5.80972400 ,   5.80972400 ,   59.3167058
0000000983,   3.00000000 ,   1.00000000 ,   8.00000000 ,   5.80972402 ,   5.80972402 ,   59.3167056
0000000984,   4.00000000 ,   1.00000000 ,   8.00000000 ,   5.80972403 ,   5.80972403 ,   59.3167054
0000000985,   5.00000000 ,   1.00000000 ,   8.00000000 ,   5.80972403 ,   5.80972403 ,   59.3167054
0000000986,   6.00000000 ,   1.00000000 ,   8.00000000 ,   5.80972403 ,   5.80972403 ,   59.3167054
0000000987,   7.00000000 ,   1.00000000 ,   8.00000000 ,   5.80972402 ,   5.80972402 ,   59.3167056
0000000988,   8.00000000 ,   1.00000000 ,   8.00000000 ,   5.80972400 ,   5.80972400 ,   59.3167058
0000000989,   9.00000000 ,   1.00000000 ,   8.00000000 ,   5.80972399 ,   5.80972399 ,   59.3167060
0000000990,   10.0000000 ,   1.00000000 ,   8.00000000 ,   5.80972398 ,   5.80972398 ,   59.3167060
0000000991,   0.00000000 ,   2.00000000 ,   8.00000000 ,   5.61767953 ,   5.61767953 ,   58.6709473
0000000992,   1.00000000 ,   2.00000000 ,   8.00000000 ,   5.61767955 ,   5.61767955 ,   58.6709472
0000000993,   2.00000000 ,   2.00000000 ,   8.00000000 ,   5.61767957 ,   5.61767957 ,   58.6709467
0000000994,   3.00000000 ,   2.00000000 ,   8.00000000 ,   5.61767961 ,   5.61767961 ,   58.6709461
0000000995,   4.00000000 ,   2.00000000 ,   8.00000000 ,   5.61767964 ,   5.61767964 ,   58.6709457
0000000996,   5.00000000 ,   2.00000000 ,   8.00000000 ,   5.61767965 ,   5.61767965 ,   58.6709455
0000000997,   6.00000000 ,   2.00000000 ,   8.00000000 ,   5.61767964 ,   5.61767964 ,   58.6709457
0000000998,   7.00000000 ,   2.00000000 ,   8.00000000 ,   5.61767961 ,   5.61767961 ,   58.6709461
0000000999,   8.00000000 ,   2.00000000 ,   8.00000000 ,   5.61767957 ,   5.61767957 ,   58.6709467
0000001000,   9.00000000 ,   2.00000000 ,   8.00000000 ,   5.61767955 ,   5.61767955 ,   58.6709472
0000001001,   10.0000000 ,   2.00000000 ,   8.00000000 ,   5.61767953 ,   5.61767953 ,   58.6709473
0000001002,   0.00000000 ,   3.00000000 ,   8.00000000 ,   5.42340184 ,   5.42340184 ,   57.9481351
0000001003,   1.00000000 ,   3.00000000 ,   8.00000000 ,   5.42340186 ,   5.42340186 ,   57.9481346
0000001004,   2.00000000 ,   3.00000000 ,   8.00000000 ,   5.42340191 ,   5.42340191 ,   57.9481332
0000001005,   3.00000000 ,   3.00000000 ,   8.00000000 ,   5.42340198 ,   5.42340198 ,   57.9481317
0000001006,   4.00000000 ,   3.00000000 ,   8.00000000 ,   5.42340203 ,   5.42340203 ,   57.9481306
0000001007,   5.00000000 ,   3.00000000 ,   8.00000000 ,   5.42340205 ,   5.42340205 ,   57.9481302
0000001008,   6.00000000 ,   3.00000000 ,   8.00000000 ,   5.42340203 ,   5.42340203 ,   57.9481306
0000001009,   7.00000000 ,   3.00000000 ,   8.00000000 ,   5.42340198 ,   5.42340198 ,   57.9481317
0000001010,   8.00000000 ,   3.00000000 ,   8.00000000 ,   5.42340191 ,   5.42340191 ,   57.9481332
0000001011,   9.00000000 ,   3.00000000 ,   8.00000000 ,   5.42340186 ,   5.42340186 ,   57.9481346
0000001012,   10.0000000 ,   3.00000000 ,   8.00000000 ,   5.42340184 ,   5.42340184 ,   57.9481351
0000001013,   0.00000000 ,   4.00000000 ,   8.00000000 ,   5.22674498 ,   5.22674498 ,   57.1948243
0000001014,   1.00000000 ,   4.00000000 ,   8.00000000 ,   5.22674502 ,   5.22674502 ,   57.1948227
0000001015,   2.00000000 ,   4.00000000 ,   8.00000000 ,   5.22674511 ,   5.22674511 ,   57.1948191
0000001016,   3.00000000 ,   4.00000000 ,   8.00000000 ,   5.22674522 ,   5.22674522 ,   57.1948150
0000001017,   4.00000000 ,   4.00000000 ,   8.00000000 ,   5.22674531 ,   5.22674531 ,   57.1948121
0000001018,   5.00000000 ,   4.00000000 ,   8.00000000 ,   5.22674534 ,   5.22674534 ,   57.1948110
0000001019,   6.00000000 ,   4.00000000 ,   8.00000000 ,   5.22674531 ,   5.22674531 ,   57.1948121
0000001020,   7.00000000 ,   4.00000000 ,   8.00000000 ,   5.22674522 ,   5.22674522 ,   57.1948150
0000001021,   8.00000000 ,   4.00000000 ,   8.00000000 ,   5.22674511 ,   5.22674511 ,   57.1948191
0000001022,   9.00000000 ,   4.00000000 ,   8.00000000 ,   5.22674502 ,   5.22674502 ,   57.1948227
0000001023,   10.0000000 ,   4.00000000 ,   8.00000000 ,   5.22674498 ,   5.22674498 ,   57.1948243
0000001024,   0.00000000 ,   5.00000000 ,   8.00000000 ,   5.02771466 ,   5.02771466 ,   56.4403416
0000001025,   1.00000000 ,   5.00000000 ,   8.00000000 ,   5.02771471 ,   5.02771471 ,   56.4403375
0000001026,   2.00000000 ,   5.00000000 ,   8.00000000 ,   5.02771486 ,   5.02771486 ,   56.4403277
0000001027,   3.00000000 ,   5.00000000 ,   8.00000000 ,   5.02771504 ,   5.02771504 ,   56.4403173
0000001028,   4.00000000 ,   5.00000000 ,   8.00000000 ,   5.02771517 ,   5.02771517 ,   56.4403099
0000001029,   5.00000000 ,   5.00000000 ,   8.00000000 ,   5.02771522 ,   5.02771522 ,   56.4403073
0000001030,   6.00000000 ,   5.00000000 ,   8.00000000 ,   5.02771517 ,   5.02771517 ,   56.4403099
0000001031,   7.00000000 ,   5.00000000 ,   8.00000000 ,   5.02771504 ,   5.02771504 ,   56.4403173
0000001032,   8.00000000 ,   5.00000000 ,   8.00000000 ,   5.02771486 ,   5.02771486 ,   56.4403277
0000001033,   9.00000000 ,   5.00000000 ,   8.00000000 ,   5.02771471 ,   5.02771471 ,   56.4403375
0000001034,   10.0000000 ,   5.00000000 ,   8.00000000 ,   5.02771466 ,   5.02771466 ,   56.4403416
0000001035,   0.00000000 ,   6.00000000 ,   8.00000000 ,   4.82638207 ,   4.82638207 ,   55.7026973
0000001036,   1.00000000 ,   6.00000000 ,   8.00000000 ,   4.82638216 ,   4.82638216 ,   55.7026866
0000001037,   2.00000000 ,   6.00000000 ,   8.00000000 ,   4.82638238 ,   4.82638238 ,   55.7026621
0000001038,   3.00000000 ,   6.00000000 ,   8.00000000 ,   4.82638265 ,   4.82638265 ,   55.7026366
0000001039,   4.00000000 ,   6.00000000 ,   8.00000000 ,   4.82638285 ,   4.82638285 ,   55.7026190
0000001040,   5.00000000 ,   6.00000000 ,   8.00000000 ,   4.82638292 ,   4.82638292 ,   55.7026129
0000001041,   6.00000000 ,   6.00000000 ,   8.00000000 ,   4.82638285 ,   4.82638285 ,   55.7026190
0000001042,   7.00000000 ,   6.00000000 ,   8.00000000 ,   4.82638265 ,   4.82638265 ,   55.7026366
0000001043,   8.00000000 ,   6.00000000 ,   8.00000000 ,   4.82638238 ,   4.82638238 ,   55.7026621
0000001044,   9.00000000 ,   6.00000000 ,   8.00000000 ,   4.82638216 ,   4.82638216 ,   55.7026866
0000001045,   10.0000000 ,   6.00000000 ,   8.00000000 ,   4.82638207 ,   4.82638207 ,   55.7026973
0000001046,   0.00000000 ,   7.00000000 ,   8.00000000 ,   4.62284010 ,   4.62284010 ,   54.9929862
0000001047,   1.00000000 ,   7.00000000 ,   8.00000000 ,   4.62284023 ,   4.62284023 ,   54.9929603
0000001048,   2.00000000 ,   7.00000000 ,   8.00000000 ,   4.62284055 ,   4.62284055 ,   54.9929029
0000001049,   3.00000000 ,   7.00000000 ,   8.00000000 ,   4.62284091 ,   4.62284091 ,   54.9928449
0000001050,   4.00000000 ,   7.00000000 ,   8.00000000 ,   4.62284118 ,   4.62284118 ,   54.9928058
0000001051,   5.00000000 ,   7.00000000 ,   8.00000000 ,   4.62284128 ,   4.62284128 ,   54.9927924
0000001052,   6.00000000 ,   7.00000000 ,   8.00000000 ,   4.62284118 ,   4.62284118 ,   54.9928058
0000001053,   7.00000000 ,   7.00000000 ,   8.00000000 ,   4.62284091 ,   4.62284091 ,   54.9928449
0000001054,   8.00000000 ,   7.00000000 ,   8.00000000 ,   4.62284055 ,   4.62284055 ,   54.9929029
0000001055,   9.00000000 ,   7.00000000 ,   8.00000000 ,   4.62284023 ,   4.62284023 ,   54.9929603
0000001056,   10.0000000 ,   7.00000000 ,   8.00000000 ,   4.62284010 ,   4.62284010 ,   54.9929862
0000001057,   0.00000000 ,   8.00000000 ,   8.00000000 ,   4.41718270 ,   4.41718270 ,   54.3207558
0000001058,   1.00000000 ,   8.00000000 ,   8.00000000 ,   4.41718285 ,   4.41718285 ,   54.3206987
0000001059,   2.00000000 ,   8.00000000 ,   8.00000000 ,   4.41718323 ,   4.41718323 ,   54.3205762
0000001060,   3.00000000 ,   8.00000000 ,   8.00000000 ,   4.41718365 ,   4.41718365 ,   54.3204568
0000001061,   4.00000000 ,   8.00000000 ,   8.00000000 ,   4.41718397 ,   4.41718397 ,   54.3203784
0000001062,   5.00000000 ,   8.00000000 ,   8.00000000 ,   4.41718408 ,   4.41718408 ,   54.3203519
0000001063,   6.00000000 ,   8.00000000 ,   8.00000000 ,   4.41718397 ,   4.41718397 ,   54.3203784
0000001064,   7.00000000 ,   8.00000000 ,   8.00000000 ,   4.41718365 ,   4.41718365 ,   54.3204568
0000001065,   8.00000000 ,   8.00000000 ,   8.00000000 ,   4.41718323 ,   4.41718323 ,   54.3205762
0000001066,   9.00000000 ,   8.00000000 ,   8.00000000 ,   4.41718285 ,   4.41718285 ,   54.3206987
0000001067,   10.0000000 ,   8.00000000 ,   8.00000000 ,   4.41718270 ,   4.41718270 ,   54.3207558
0000001068,   0.00000000 ,   9.00000000 ,   8.00000000 ,   4.20950590 ,   4.20950590 ,   53.7197785
0000001069,   1.00000000 ,   9.00000000 ,   8.00000000 ,   4.20950603 ,   4.20950603 ,   53.7196701
0000001070,   2.00000000 ,   9.00000000 ,   8.00000000 ,   4.20950636 ,   4.20950636 ,   53.7194459
0000001071,   3.00000000 ,   9.00000000 ,   8.00000000 ,   4.20950670 ,   4.20950670 ,   53.7192337
0000001072,   4.00000000 ,   9.00000000 ,   8.00000000 ,   4.20950695 ,   4.20950695 ,   53.7190976
0000001073,   5.00000000 ,   9.00000000 ,   8.00000000 ,   4.20950704 ,   4.20950704 ,   53.7190521
0000001074,   6.00000000 ,   9.00000000 ,   8.00000000 ,   4.20950695 ,   4.20950695 ,   53.7190976
0000001075,   7.00000000 ,   9.00000000 ,   8.00000000 ,   4.20950670 ,   4.20950670 ,   53.7192337
0000001076,   8.00000000 ,   9.00000000 ,   8.00000000 ,   4.20950636 ,   4.20950636 ,   53.7194459
0000001077,   9.00000000 ,   9.00000000 ,   8.00000000 ,   4.20950603 ,   4.20950603 ,   53.7196701
0000001078,   10.0000000 ,   9.00000000 ,   8.00000000 ,   4.20950590 ,   4.20950590 ,   53.7197785
0000001079,   0.00000000 ,   10.0000000 ,   8.00000000 ,   4.00000000 ,   4.00000000 ,   53.4756770
0000001080,   1.00000000 ,   10.0000000 ,   8.00000000 ,   4.00000000 ,   4.00000000 ,   53.4755371
0000001081,   2.00000000 ,   10.0000000 ,   8.00000000 ,   4.00000000 ,   4.00000000 ,   53.4752516
0000001082,   3.00000000 ,   10.0000000 ,   8.00000000 ,   4.00000000 ,   4.00000000 ,   53.4749849
0000001083,   4.00000000 ,   10.0000000 ,   8.00000000 ,   4.00000000 ,   4.00000000 ,   53.4748153
0000001084,   5.00000000 ,   10.0000000 ,   8.00000000 ,   4.00000000 ,   4.00000000 ,   53.4747589
0000001085,   6.00000000 ,   10.0000000 ,   8.00000000 ,   4.00000000 ,   4.00000000 ,   53.4748153
0000001086,   7.00000000 ,   10.0000000 ,   8.00000000 ,   4.00000000 ,   4.00000000 ,   53.4749849
0000001087,   8.00000000 ,   10.0000000 ,   8.00000000 ,   4.00000000 ,   4.00000000 ,   53.4752516
0000001088,   9.00000000 ,   10.0000000 ,   8.00000000 ,   4.00000000 ,   4.00000000 ,   53.4755371
0000001089,   10.0000000 ,   10.0000000 ,   8.00000000 ,   4.00000000 ,   4.00000000 ,   53.4756770
0000001090,   0.00000000 ,   0.00000000 ,   9.00000000 ,   6.00000000 ,   6.00000000 ,   57.7943101
0000001091,   1.00000000 ,   0.00000000 ,   9.00000000 ,   6.00000000 ,   6.00000000 ,   57.7943101
0000001092,   2.00000000 ,   0.00000000 ,   9.00000000 ,   6.00000000 ,   6.00000000 ,   57.7943101
0000001093,   3.00000000 ,   0.00000000 ,   9.00000000 ,   6.00000000 ,   6.00000000 ,   57.7943100
0000001094,   4.00000000 ,   0.00000000 ,   9.00000000 ,   6.00000000 ,   6.00000000 ,   57.7943100
0000001095,   5.00000000 ,   0.00000000 ,   9.00000000 ,   6.00000000 ,   6.00000000 ,   57.7943099
0000001096,   6.00000000 ,   0.00000000 ,   9.00000000 ,   6.00000000 ,   6.00000000 ,   57.7943100
0000001097,   7.00000000 ,   0.00000000 ,   9.00000000 ,   6.00000000 ,   6.00000000 ,   57.7943100
0000001098,   8.00000000 ,   0.00000000 ,   9.00000000 ,   6.00000000 ,   6.00000000 ,   57.7943101
0000001099,   9.00000000 ,   0.00000000 ,   9.00000000 ,   6.00000000 ,   6.00000000 ,   57.7943101
0000001100,   10.0000000 ,   0.00000000 ,   9.00000000 ,   6.00000000 ,   6.00000000 ,   57.7943101
0000001101,   0.00000000 ,   1.00000000 ,   9.00000000 ,   5.81637299 ,   5.81637299 ,   54.9958647
0000001102,   1.00000000 ,   1.00000000 ,   9.00000000 ,   5.81637299 ,   5.81637299 ,   54.9958646
0000001103,   2.00000000 ,   1.00000000 ,   9.00000000 ,   5.81637299 ,   5.81637299 ,   54.9958645
0000001104,   3.00000000 ,   1.00000000 ,   9.00000000 ,   5.81637300 ,   5.81637300 ,   54.9958644
0000001105,   4.00000000 ,   1.00000000 ,   9.00000000 ,   5.81637300 ,   5.81637300 ,   54.9958643
0000001106,   5.00000000 ,   1.00000000 ,   9.00000000 ,   5.81637300 ,   5.81637300 ,   54.9958643
0000001107,   6.00000000 ,   1.00000000 ,   9.00000000 ,   5.81637300 ,   5.81637300 ,   54.9958643
0000001108,   7.00000000 ,   1.00000000 ,   9.00000000 ,   5.81637300 ,   5.81637300 ,   54.9958644
0000001109,   8.00000000 ,   1.00000000 ,   9.00000000 ,   5.81637299 ,   5.81637299 ,   54.9958645
0000001110,   9.00000000 ,   1.00000000 ,   9.00000000 ,   5.81637299 ,   5.81637299 ,   54.9958646
0000001111,   10.0000000 ,   1.00000000 ,   9.00000000 ,   5.81637299 ,   5.81637299 ,   54.9958647
0000001112,   0.00000000 ,   2.00000000 ,   9.00000000 ,   5.62646140 ,   5.62646140 ,   52.7129128
0000001113,   1.00000000 ,   2.00000000 ,   9.00000000 ,   5.62646140 ,   5.62646140 ,   52.7129128
0000001114,   2.00000000 ,   2.00000000 ,   9.00000000 ,   5.62646141 ,   5.62646141 ,   52.7129126
0000001115,   3.00000000 ,   2.00000000 ,   9.00000000 ,   5.62646142 ,   5.62646142 ,   52.7129124
0000001116,   4.00000000 ,   2.00000000 ,   9.00000000 ,   5.62646143 ,   5.62646143 ,   52.7129123
0000001117,   5.00000000 ,   2.00000000 ,   9.00000000 ,   5.62646144 ,   5.62646144 ,   52.7129122
0000001118,   6.00000000 ,   2.00000000 ,   9.00000000 ,   5.62646143 ,   5.62646143 ,   52.7129123
0000001119,   7.00000000 ,   2.00000000 ,   9.00000000 ,   5.62646142 ,   5.62646142 ,   52.7129124
0000001120,   8.00000000 ,   2.00000000 ,   9.00000000 ,   5.62646141 ,   5.62646141 ,   52.7129126
0000001121,   9.00000000 ,   2.00000000 ,   9.00000000 ,   5.62646140 ,   5.62646140 ,   52.7129128
0000001122,   10.0000000 ,   2.00000000 ,   9.00000000 ,   5.62646140 ,   5.62646140 ,   52.7129128
0000001123,   0.00000000 ,   3.00000000 ,   9.00000000 ,   5.43200264 ,   5.43200264 ,   50.8284709
0000001124,   1.00000000 ,   3.00000000 ,   9.00000000 ,   5.43200265 ,   5.43200265 ,   50.8284707
0000001125,   2.00000000 ,   3.00000000 ,   9.00000000 ,   5.43200266 ,   5.43200266 ,   50.8284704
0000001126,   3.00000000 ,   3.00000000 ,   9.00000000 ,   5.43200268 ,   5.43200268 ,   50.8284700
0000001127,   4.00000000 ,   3.00000000 ,   9.00000000 ,   5.43200270 ,   5.43200270 ,   50.8284697
0000001128,   5.00000000 ,   3.00000000 ,   9.00000000 ,   5.43200270 ,   5.43200270 ,   50.8284696
0000001129,   6.00000000 ,   3.00000000 ,   9.00000000 ,   5.43200270 ,   5.43200270 ,   50.8284697
0000001130,   7.00000000 ,   3.00000000 ,   9.00000000 ,   5.43200268 ,   5.43200268 ,   50.8284700
0000001131,   8.00000000 ,   3.00000000 ,   9.00000000 ,   5.43200266 ,   5.43200266 ,   50.8284704
0000001132,   9.00000000 ,   3.00000000 ,   9.00000000 ,   5.43200265 ,   5.43200265 ,   50.8284707
0000001133,   10.0000000 ,   3.00000000 ,   9.00000000 ,   5.43200264 ,   5.43200264 ,   50.8284709
0000001134,   0.00000000 ,   4.00000000 ,   9.00000000 ,   5.23407875 ,   5.23407875 ,   49.2588961
0000001135,   1.00000000 ,   4.00000000 ,   9.00000000 ,   5.23407876 ,   5.23407876 ,   49.2588958
0000001136,   2.00000000 ,   4.00000000 ,   9.00000000 ,   5.23407878 ,   5.23407878 ,   49.2588951
0000001137,   3.00000000 ,   4.00000000 ,   9.00000000 ,   5.23407881 ,   5.23407881 ,   49.2588943
0000001138,   4.00000000 ,   4.00000000 ,   9.00000000 ,   5.23407884 ,   5.23407884 ,   49.2588937
0000001139,   5.00000000 ,   4.00000000 ,   9.00000000 ,   5.23407885 ,   5.23407885 ,   49.2588935
0000001140,   6.00000000 ,   4.00000000 ,   9.00000000 ,   5.23407884 ,   5.23407884 ,   49.2588937
0000001141,   7.00000000 ,   4.00000000 ,   9.00000000 ,   5.23407881 ,   5.23407881 ,   49.2588943
0000001142,   8.00000000 ,   4.00000000 ,   9.00000000 ,   5.23407878 ,   5.23407878 ,   49.2588951
0000001143,   9.00000000 ,   4.00000000 ,   9.00000000 ,   5.23407876 ,   5.23407876 ,   49.2588958
0000001144,   10.0000000 ,   4.00000000 ,   9.00000000 ,   5.23407875 ,   5.23407875 ,   49.2588961
0000001145,   0.00000000 ,   5.00000000 ,   9.00000000 ,   5.03339112 ,   5.03339112 ,   47.9413255
0000001146,   1.00000000 ,   5.00000000 ,   9.00000000 ,   5.03339114 ,   5.03339114 ,   47.9413248
0000001147,   2.00000000 ,   5.00000000 ,   9.00000000 ,   5.03339118 ,   5.03339118 ,   47.9413231
0000001148,   3.00000000 ,   5.00000000 ,   9.00000000 ,   5.03339122 ,   5.03339122 ,   47.9413213
0000001149,   4.00000000 ,   5.00000000 ,   9.00000000 ,   5.03339126 ,   5.03339126 ,   47.9413199
0000001150,   5.00000000 ,   5.00000000 ,   9.00000000 ,   5.03339127 ,   5.03339127 ,   47.9413194
0000001151,   6.00000000 ,   5.00000000 ,   9.00000000 ,   5.03339126 ,   5.03339126 ,   47.9413199
0000001152,   7.00000000 ,   5.00000000 ,   9.00000000 ,   5.03339122 ,   5.03339122 ,   47.9413213
0000001153,   8.00000000 ,   5.00000000 ,   9.00000000 ,   5.03339118 ,   5.03339118 ,   47.9413231
0000001154,   9.00000000 ,   5.00000000 ,   9.00000000 ,   5.03339114 ,   5.03339114 ,   47.9413248
0000001155,   10.0000000 ,   5.00000000 ,   9.00000000 ,   5.03339112 ,   5.03339112 ,   47.9413255
0000001156,   0.00000000 ,   6.00000000 ,   9.00000000 ,   4.83040801 ,   4.83040801 ,   46.8272300
0000001157,   1.00000000 ,   6.00000000 ,   9.00000000 ,   4.83040803 ,   4.83040803 ,   46.8272283
0000001158,   2.00000000 ,   6.00000000 ,   9.00000000 ,   4.83040808 ,   4.83040808 ,   46.8272243
0000001159,   3.00000000 ,   6.00000000 ,   9.00000000 ,   4.83040814 ,   4.83040814 ,   46.8272200
0000001160,   4.00000000 ,   6.00000000 ,   9.00000000 ,   4.83040820 ,   4.83040820 ,   46.8272169
0000001161,   5.00000000 ,   6.00000000 ,   9.00000000 ,   4.83040821 ,   4.83040821 ,   46.8272159
0000001162,   6.00000000 ,   6.00000000 ,   9.00000000 ,   4.83040820 ,   4.83040820 ,   46.8272169
0000001163,   7.00000000 ,   6.00000000 ,   9.00000000 ,   4.83040814 ,   4.83040814 ,   46.8272200
0000001164,   8.00000000 ,   6.00000000 ,   9.00000000 ,   4.83040808 ,   4.83040808 ,   46.8272243
0000001165,   9.00000000 ,   6.00000000 ,   9.00000000 ,   4.83040803 ,   4.83040803 ,   46.8272283
0000001166,   10.0000000 ,   6.00000000 ,   9.00000000 ,   4.83040801 ,   4.83040801 ,   46.8272300
0000001167,   0.00000000 ,   7.00000000 ,   9.00000000 ,   4.62544138 ,   4.62544138 ,   45.8788675
0000001168,   1.00000000 ,   7.00000000 ,   9.00000000 ,   4.62544140 ,   4.62544140 ,   45.8788635
0000001169,   2.00000000 ,   7.00000000 ,   9.00000000 ,   4.62544148 ,   4.62544148 ,   45.8788543
0000001170,   3.00000000 ,   7.00000000 ,   9.00000000 ,   4.62544156 ,   4.62544156 ,   45.8788447
0000001171,   4.00000000 ,   7.00000000 ,   9.00000000 ,   4.62544162 ,   4.62544162 ,   45.8788381
0000001172,   5.00000000 ,   7.00000000 ,   9.00000000 ,   4.62544165 ,   4.62544165 ,   45.8788357
0000001173,   6.00000000 ,   7.00000000 ,   9.00000000 ,   4.62544162 ,   4.62544162 ,   45.8788381
0000001174,   7.00000000 ,   7.00000000 ,   9.00000000 ,   4.62544156 ,   4.62544156 ,   45.8788447
0000001175,   8.00000000 ,   7.00000000 ,   9.00000000 ,   4.62544148 ,   4.62544148 ,   45.8788543
0000001176,   9.00000000 ,   7.00000000 ,   9.00000000 ,   4.62544140 ,   4.62544140 ,   45.8788635
0000001177,   10.0000000 ,   7.00000000 ,   9.00000000 ,   4.62544138 ,   4.62544138 ,   45.8788675
0000001178,   0.00000000 ,   8.00000000 ,   9.00000000 ,   4.41867942 ,   4.41867942 ,   45.0687457
0000001179,   1.00000000 ,   8.00000000 ,   9.00000000 ,   4.41867945 ,   4.41867945 ,   45.0687370
0000001180,   2.00000000 ,   8.00000000 ,   9.00000000 ,   4.41867953 ,   4.41867953 ,   45.0687174
0000001181,   3.00000000 ,   8.00000000 ,   9.00000000 ,   4.41867962 ,   4.41867962 ,   45.0686976
0000001182,   4.00000000 ,   8.00000000 ,   9.00000000 ,   4.41867969 ,   4.41867969 ,   45.0686842
0000001183,   5.00000000 ,   8.00000000 ,   9.00000000 ,   4.41867972 ,   4.41867972 ,   45.0686795
0000001184,   6.00000000 ,   8.00000000 ,   9.00000000 ,   4.41867969 ,   4.41867969 ,   45.0686842
0000001185,   7.00000000 ,   8.00000000 ,   9.00000000 ,   4.41867962 ,   4.41867962 ,   45.0686976
0000001186,   8.00000000 ,   8.00000000 ,   9.00000000 ,   4.41867953 ,   4.41867953 ,   45.0687174
0000001187,   9.00000000 ,   8.00000000 ,   9.00000000 ,   4.41867945 ,   4.41867945 ,   45.0687370
0000001188,   10.0000000 ,   8.00000000 ,   9.00000000 ,   4.41867942 ,   4.41867942 ,   45.0687457
0000001189,   0.00000000 ,   9.00000000 ,   9.00000000 ,   4.21018718 ,   4.21018718 ,   44.3939735
0000001190,   1.00000000 ,   9.00000000 ,   9.00000000 ,   4.21018721 ,   4.21018721 ,   44.3939571
0000001191,   2.00000000 ,   9.00000000 ,   9.00000000 ,   4.21018727 ,   4.21018727 ,   44.3939215
0000001192,   3.00000000 ,   9.00000000 ,   9.00000000 ,   4.21018735 ,   4.21018735 ,   44.3938862
0000001193,   4.00000000 ,   9.00000000 ,   9.00000000 ,   4.21018740 ,   4.21018740 ,   44.3938627
0000001194,   5.00000000 ,   9.00000000 ,   9.00000000 ,   4.21018742 ,   4.21018742 ,   44.3938547
0000001195,   6.00000000 ,   9.00000000 ,   9.00000000 ,   4.21018740 ,   4.21018740 ,   44.3938627
0000001196,   7.00000000 ,   9.00000000 ,   9.00000000 ,   4.21018735 ,   4.21018735 ,   44.3938862
0000001197,   8.00000000 ,   9.00000000 ,   9.00000000 ,   4.21018727 ,   4.21018727 ,   44.3939215
0000001198,   9.00000000 ,   9.00000000 ,   9.00000000 ,   4.21018721 ,   4.21018721 ,   44.3939571
0000001199,   10.0000000 ,   9.00000000 ,   9.00000000 ,   4.21018718 ,   4.21018718 ,   44.3939735
0000001200,   0.00000000 ,   10.0000000 ,   9.00000000 ,   4.00000000 ,   4.00000000 ,   44.1208603
0000001201,   1.00000000 ,   10.0000000 ,   9.00000000 ,   4.00000000 ,   4.00000000 ,   44.1208393
0000001202,   2.00000000 ,   10.0000000 ,   9.00000000 ,   4.00000000 ,   4.00000000 ,   44.1207940
0000001203,   3.00000000 ,   10.0000000 ,   9.00000000 ,   4.00000000 ,   4.00000000 ,   44.1207495
0000001204,   4.00000000 ,   10.0000000 ,   9.00000000 ,   4.00000000 ,   4.00000000 ,   44.1207202
0000001205,   5.00000000 ,   10.0000000 ,   9.00000000 ,   4.00000000 ,   4.00000000 ,   44.1207102
0000001206,   6.00000000 ,   10.0000000 ,   9.00000000 ,   4.00000000 ,   4.00000000 ,   44.1207202
0000001207,   7.00000000 ,   10.0000000 ,   9.00000000 ,   4.00000000 ,   4.00000000 ,   44.1207495
0000001208,   8.00000000 ,   10.0000000 ,   9.00000000 ,   4.00000000 ,   4.00000000 ,   44.1207940
0000001209,   9.00000000 ,   10.0000000 ,   9.00000000 ,   4.00000000 ,   4.00000000 ,   44.1208393
0000001210,   10.0000000 ,   10.0000000 ,   9.00000000 ,   4.00000000 ,   4.00000000 ,   44.1208603
0000001211,   0.00000000 ,   0.00000000 ,   10.0000000 ,   6.00000000 ,   6.00000000 ,   30.0000000
0000001212,   1.00000000 ,   0.00000000 ,   10.0000000 ,   6.00000000 ,   6.00000000 ,   30.0000000
0000001213,   2.00000000 ,   0.00000000 ,   10.0000000 ,   6.00000000 ,   6.00000000 ,   30.0000000
0000001214,   3.00000000 ,   0.00000000 ,   10.0000000 ,   6.00000000 ,   6.00000000 ,   30.0000000
0000001215,   4.00000000 ,   0.00000000 ,   10.0000000 ,   6.00000000 ,   6.00000000 ,   30.0000000
0000001216,   5.00000000 ,   0.00000000 ,   10.0000000 ,   6.00000000 ,   6.00000000 ,   30.0000000
0000001217,   6.00000000 ,   0.00000000 ,   10.0000000 ,   6.00000000 ,   6.00000000 ,   30.0000000
0000001218,   7.00000000 ,   0.00000000 ,   10.0000000 ,   6.00000000 ,   6.00000000 ,   30.0000000
0000001219,   8.00000000 ,   0.00000000 ,   10.0000000 ,   6.00000000 ,   6.00000000 ,   30.0000000
0000001220,   9.00000000 ,   0.00000000 ,   10.0000000 ,   6.00000000 ,   6.00000000 ,   30.0000000
0000001221,   10.0000000 ,   0.00000000 ,   10.0000000 ,   6.00000000 ,   6.00000000 ,   30.0000000
0000001222,   0.00000000 ,   1.00000000 ,   10.0000000 ,   5.80585998 ,   5.80585998 ,   30.0000000
0000001223,   1.00000000 ,   1.00000000 ,   10.0000000 ,   5.80585998 ,   5.80585998 ,   30.0000000
0000001224,   2.00000000 ,   1.00000000 ,   10.0000000 ,   5.80585998 ,   5.80585998 ,   30.0000000
0000001225,   3.00000000 ,   1.00000000 ,   10.0000000 ,   5.80585999 ,   5.80585999 ,   30.0000000
0000001226,   4.00000000 ,   1.00000000 ,   10.0000000 ,   5.80585999 ,   5.80585999 ,   30.0000000
0000001227,   5.00000000 ,   1.00000000 ,   10.0000000 ,   5.80585999 ,   5.80585999 ,   30.0000000
0000001228,   6.00000000 ,   1.00000000 ,   10.0000000 ,   5.80585999 ,   5.80585999 ,   30.0000000
0000001229,   7.00000000 ,   1.00000000 ,   10.0000000 ,   5.80585999 ,   5.80585999 ,   30.0000000
0000001230,   8.00000000 ,   1.00000000 ,   10.0000000 ,   5.80585998 ,   5.80585998 ,   30.0000000
0000001231,   9.00000000 ,   1.00000000 ,   10.0000000 ,   5.80585998 ,   5.80585998 ,   30.0000000
0000001232,   10.0000000 ,   1.00000000 ,   10.0000000 ,   5.80585998 ,   5.80585998 ,   30.0000000
0000001233,   0.00000000 ,   2.00000000 ,   10.0000000 ,   5.61145674 ,   5.61145674 ,   30.0000000
0000001234,   1.00000000 ,   2.00000000 ,   10.0000000 ,   5.61145674 ,   5.61145674 ,   30.0000000
0000001235,   2.00000000 ,   2.00000000 ,   10.0000000 ,   5.61145674 ,   5.61145674 ,   30.0000000
0000001236,   3.00000000 ,   2.00000000 ,   10.0000000 ,   5.61145675 ,   5.61145675 ,   30.0000000
0000001237,   4.00000000 ,   2.00000000 ,   10.0000000 ,   5.61145675 ,   5.61145675 ,   30.0000000
0000001238,   5.00000000 ,   2.00000000 ,   10.0000000 ,   5.61145676 ,   5.61145676 ,   30.0000000
0000001239,   6.00000000 ,   2.00000000 ,   10.0000000 ,   5.61145675 ,   5.61145675 ,   30.0000000
0000001240,   7.00000000 ,   2.00000000 ,   10.0000000 ,   5.61145675 ,   5.61145675 ,   30.0000000
0000001241,   8.00000000 ,   2.00000000 ,   10.0000000 ,   5.61145674 ,   5.61145674 ,   30.0000000
0000001242,   9.00000000 ,   2.00000000 ,   10.0000000 ,   5.61145674 ,   5.61145674 ,   30.0000000
0000001243,   10.0000000 ,   2.00000000 ,   10.0000000 ,   5.61145674 ,   5.61145674 ,   30.0000000
0000001244,   0.00000000 ,   3.00000000 ,   10.0000000 ,   5.41544203 ,   5.41544203 ,   30.0000000
0000001245,   1.00000000 ,   3.00000000 ,   10.0000000 ,   5.41544203 ,   5.41544203 ,   30.0000000
0000001246,   2.00000000 ,   3.00000000 ,   10.0000000 ,   5.41544204 ,   5.41544204 ,   30.0000000
0000001247,   3.00000000 ,   3.00000000 ,   10.0000000 ,   5.41544205 ,   5.41544205 ,   30.0000000
0000001248,   4.00000000 ,   3.00000000 ,   10.0000000 ,   5.41544205 ,   5.41544205 ,   30.0000000
0000001249,   5.00000000 ,   3.00000000 ,   10.0000000 ,   5.41544206 ,   5.41544206 ,   30.0000000
0000001250,   6.00000000 ,   3.00000000 ,   10.0000000 ,   5.41544205 ,   5.41544205 ,   30.0000000
0000001251,   7.00000000 ,   3.00000000 ,   10.0000000 ,   5.41544205 ,   5.41544205 ,   30.0000000
0000001252,   8.00000000 ,   3.00000000 ,   10.0000000 ,   5.41544204 ,   5.41544204 ,   30.0000000
0000001253,   9.00000000 ,   3.00000000 ,   10.0000000 ,   5.41544203 ,   5.41544203 ,   30.0000000
0000001254,   10.0000000 ,   3.00000000 ,   10.0000000 ,   5.41544203 ,   5.41544203 ,   30.0000000
0000001255,   0.00000000 ,   4.00000000 ,   10.0000000 ,   5.21740712 ,   5.21740712 ,   30.0000000
0000001256,   1.00000000 ,   4.00000000 ,   10.0000000 ,   5.21740713 ,   5.21740713 ,   30.0000000
0000001257,   2.00000000 ,   4.00000000 ,   10.0000000 ,   5.21740714 ,   5.21740714 ,   30.0000000
0000001258,   3.00000000 ,   4.00000000 ,   10.0000000 ,   5.21740715 ,   5.21740715 ,   30.0000000
0000001259,   4.00000000 ,   4.00000000 ,   10.0000000 ,   5.21740716 ,   5.21740716 ,   30.0000000
0000001260,   5.00000000 ,   4.00000000 ,   10.0000000 ,   5.21740717 ,   5.21740717 ,   30.0000000
0000001261,   6.00000000 ,   4.00000000 ,   10.0000000 ,   5.21740716 ,   5.21740716 ,   30.0000000
0000001262,   7.00000000 ,   4.00000000 ,   10.0000000 ,   5.21740715 ,   5.21740715 ,   30.0000000
0000001263,   8.00000000 ,   4.00000000 ,   10.0000000 ,   5.21740714 ,   5.21740714 ,   30.0000000
0000001264,   9.00000000 ,   4.00000000 ,   10.0000000 ,   5.21740713 ,   5.21740713 ,   30.0000000
0000001265,   10.0000000 ,   4.00000000 ,   10.0000000 ,   5.21740712 ,   5.21740712 ,   30.0000000
0000001266,   0.00000000 ,   5.00000000 ,   10.0000000 ,   5.01737092 ,   5.01737092 ,   30.0000000
0000001267,   1.00000000 ,   5.00000000 ,   10.0000000 ,   5.01737092 ,   5.01737092 ,   30.0000000
0000001268,   2.00000000 ,   5.00000000 ,   10.0000000 ,   5.01737094 ,   5.01737094 ,   30.0000000
0000001269,   3.00000000 ,   5.00000000 ,   10.0000000 ,   5.01737096 ,   5.01737096 ,   30.0000000
0000001270,   4.00000000 ,   5.00000000 ,   10.0000000 ,   5.01737097 ,   5.01737097 ,   30.0000000
0000001271,   5.00000000 ,   5.00000000 ,   10.0000000 ,   5.01737098 ,   5.01737098 ,   30.0000000
0000001272,   6.00000000 ,   5.00000000 ,   10.0000000 ,   5.01737097 ,   5.01737097 ,   30.0000000
0000001273,   7.00000000 ,   5.00000000 ,   10.0000000 ,   5.01737096 ,   5.01737096 ,   30.0000000
0000001274,   8.00000000 ,   5.00000000 ,   10.0000000 ,   5.01737094 ,   5.01737094 ,   30.0000000
0000001275,   9.00000000 ,   5.00000000 ,   10.0000000 ,   5.01737092 ,   5.01737092 ,   30.0000000
0000001276,   10.0000000 ,   5.00000000 ,   10.0000000 ,   5.01737092 ,   5.01737092 ,   30.0000000
0000001277,   0.00000000 ,   6.00000000 ,   10.0000000 ,   4.81555831 ,   4.81555831 ,   30.0000000
0000001278,   1.00000000 ,   6.00000000 ,   10.0000000 ,   4.81555832 ,   4.81555832 ,   30.0000000
0000001279,   2.00000000 ,   6.00000000 ,   10.0000000 ,   4.81555834 ,   4.81555834 ,   30.0000000
0000001280,   3.00000000 ,   6.00000000 ,   10.0000000 ,   4.81555836 ,   4.81555836 ,   30.0000000
0000001281,   4.00000000 ,   6.00000000 ,   10.0000000 ,   4.81555838 ,   4.81555838 ,   30.0000000
0000001282,   5.00000000 ,   6.00000000 ,   10.0000000 ,   4.81555839 ,   4.81555839 ,   30.0000000
0000001283,   6.00000000 ,   6.00000000 ,   10.0000000 ,   4.81555838 ,   4.81555838 ,   30.0000000
0000001284,   7.00000000 ,   6.00000000 ,   10.0000000 ,   4.81555836 ,   4.81555836 ,   30.0000000
0000001285,   8.00000000 ,   6.00000000 ,   10.0000000 ,   4.81555834 ,   4.81555834 ,   30.0000000
0000001286,   9.00000000 ,   6.00000000 ,   10.0000000 ,   4.81555832 ,   4.81555832 ,   30.0000000
0000001287,   10.0000000 ,   6.00000000 ,   10.0000000 ,   4.81555831 ,   4.81555831 ,   30.0000000
0000001288,   0.00000000 ,   7.00000000 ,   10.0000000 ,   4.61232301 ,   4.61232301 ,   30.0000000
0000001289,   1.00000000 ,   7.00000000 ,   10.0000000 ,   4.61232302 ,   4.61232302 ,   30.0000000
0000001290,   2.00000000 ,   7.00000000 ,   10.0000000 ,   4.61232304 ,   4.61232304 ,   30.0000000
0000001291,   3.00000000 ,   7.00000000 ,   10.0000000 ,   4.61232307 ,   4.61232307 ,   30.0000000
0000001292,   4.00000000 ,   7.00000000 ,   10.0000000 ,   4.61232309 ,   4.61232309 ,   30.0000000
0000001293,   5.00000000 ,   7.00000000 ,   10.0000000 ,   4.61232310 ,   4.61232310 ,   30.0000000
0000001294,   6.00000000 ,   7.00000000 ,   10.0000000 ,   4.61232309 ,   4.61232309 ,   30.0000000
0000001295,   7.00000000 ,   7.00000000 ,   10.0000000 ,   4.61232307 ,   4.61232307 ,   30.0000000
0000001296,   8.00000000 ,   7.00000000 ,   10.0000000 ,   4.61232304 ,   4.61232304 ,   30.0000000
0000001297,   9.00000000 ,   7.00000000 ,   10.0000000 ,   4.61232302 ,   4.61232302 ,   30.0000000
0000001298,   10.0000000 ,   7.00000000 ,   10.0000000 ,   4.61232301 ,   4.61232301 ,   30.0000000
0000001299,   0.00000000 ,   8.00000000 ,   10.0000000 ,   4.40815490 ,   4.40815490 ,   30.0000000
0000001300,   1.00000000 ,   8.00000000 ,   10.0000000 ,   4.40815491 ,   4.40815491 ,   30.0000000
0000001301,   2.00000000 ,   8.00000000 ,   10.0000000 ,   4.40815493 ,   4.40815493 ,   30.0000000
0000001302,   3.00000000 ,   8.00000000 ,   10.0000000 ,   4.40815496 ,   4.40815496 ,   30.0000000
0000001303,   4.00000000 ,   8.00000000 ,   10.0000000 ,   4.40815498 ,   4.40815498 ,   30.0000000
0000001304,   5.00000000 ,   8.00000000 ,   10.0000000 ,   4.40815499 ,   4.40815499 ,   30.0000000
0000001305,   6.00000000 ,   8.00000000 ,   10.0000000 ,   4.40815498 ,   4.40815498 ,   30.0000000
0000001306,   7.00000000 ,   8.00000000 ,   10.0000000 ,   4.40815496 ,   4.40815496 ,   30.0000000
0000001307,   8.00000000 ,   8.00000000 ,   10.0000000 ,   4.40815493 ,   4.40815493 ,   30.0000000
0000001308,   9.00000000 ,   8.00000000 ,   10.0000000 ,   4.40815491 ,   4.40815491 ,   30.0000000
0000001309,   10.0000000 ,   8.00000000 ,   10.0000000 ,   4.40815490 ,   4.40815490 ,   30.0000000
0000001310,   0.00000000 ,   9.00000000 ,   10.0000000 ,   4.20375737 ,   4.20375737 ,   30.0000000
0000001311,   1.00000000 ,   9.00000000 ,   10.0000000 ,   4.20375738 ,   4.20375738 ,   30.0000000
0000001312,   2.00000000 ,   9.00000000 ,   10.0000000 ,   4.20375739 ,   4.20375739 ,   30.0000000
0000001313,   3.00000000 ,   9.00000000 ,   10.0000000 ,   4.20375741 ,   4.20375741 ,   30.0000000
0000001314,   4.00000000 ,   9.00000000 ,   10.0000000 ,   4.20375742 ,   4.20375742 ,   30.0000000
0000001315,   5.00000000 ,   9.00000000 ,   10.0000000 ,   4.20375742 ,   4.20375742 ,   30.0000000
0000001316,   6.00000000 ,   9.00000000 ,   10.0000000 ,   4.20375742 ,   4.20375742 ,   30.0000000
0000001317,   7.00000000 ,   9.00000000 ,   10.0000000 ,   4.20375741 ,   4.20375741 ,   30.0000000
0000001318,   8.00000000 ,   9.00000000 ,   10.0000000 ,   4.20375739 ,   4.20375739 ,   30.0000000
0000001319,   9.00000000 ,   9.00000000 ,   10.0000000 ,   4.20375738 ,   4.20375738 ,   30.0000000
0000001320,   10.0000000 ,   9.00000000 ,   10.0000000 ,   4.20375737 ,   4.20375737 ,   30.0000000
0000001321,   0.00000000 ,   10.0000000 ,   10.0000000 ,   4.00000000 ,   4.00000000 ,   30.0000000
0000001322,   1.00000000 ,   10.0000000 ,   10.0000000 ,   4.00000000 ,   4.00000000 ,   30.0000000
0000001323,   2.00000000 ,   10.0000000 ,   10.0000000 ,   4.00000000 ,   4.00000000 ,   30.0000000
0000001324,   3.00000000 ,   10.0000000 ,   10.0000000 ,   4.00000000 ,   4.00000000 ,   30.0000000
0000001325,   4.00000000 ,   10.0000000 ,   10.0000000 ,   4.00000000 ,   4.00000000 ,   30.0000000
0000001326,   5.00000000 ,   10.0000000 ,   10.0000000 ,   4.00000000 ,   4.00000000 ,   30.0000000
0000001327,   6.00000000 ,   10.0000000 ,   10.0000000 ,   4.00000000 ,   4.00000000 ,   30.0000000
0000001328,   7.00000000 ,   10.0000000 ,   10.0000000 ,   4.00000000 ,   4.00000000 ,   30.0000000
0000001329,   8.00000000 ,   10.0000000 ,   10.0000000 ,   4.00000000 ,   4.00000000 ,   30.0000000
0000001330,   9.00000000 ,   10.0000000 ,   10.0000000 ,   4.00000000 ,   4.00000000 ,   30.0000000
0000001331,   10.0000000 ,   10.0000000 ,   10.0000000 ,   4.00000000 ,   4.00000000 ,   30.0000000
