node, X coordinate (m), Y coordinate (m), Z coordinate (m), Liquid Pressure (MPa), Vapor Pressure (MPa), Temperature (deg C)
0000000001,   0.00000000 ,   0.00000000 ,   0.00000000 ,   6.00000000 ,   6.00000000 ,   80.0000000
0000000002,   1.00000000 ,   0.00000000 ,   0.00000000 ,   6.00000000 ,   6.00000000 ,   80.0000000
0000000003,   2.00000000 ,   0.00000000 ,   0.00000000 ,   6.00000000 ,   6.00000000 ,   80.0000000
0000000004,   3.00000000 ,   0.00000000 ,   0.00000000 ,   6.00000000 ,   6.00000000 ,   80.0000000
0000000005,   4.00000000 ,   0.00000000 ,   0.00000000 ,   6.00000000 ,   6.00000000 ,   80.0000000
0000000006,   5.00000000 ,   0.00000000 ,   0.00000000 ,   6.00000000 ,   6.00000000 ,   80.0000000
0000000007,   6.00000000 ,   0.00000000 ,   0.00000000 ,   6.00000000 ,   6.00000000 ,   80.0000000
0000000008,   7.00000000 ,   0.00000000 ,   0.00000000 ,   6.00000000 ,   6.00000000 ,   80.0000000
0000000009,   8.00000000 ,   0.00000000 ,   0.00000000 ,   6.00000000 ,   6.00000000 ,   80.0000000
0000000010,   9.00000000 ,   0.00000000 ,   0.00000000 ,   6.00000000 ,   6.00000000 ,   80.0000000
0000000011,   10.0000000 ,   0.00000000 ,   0.00000000 ,   6.00000000 ,   6.00000000 ,   80.0000000
0000000012,   0.00000000 ,   1.00000000 ,   0.00000000 ,   5.80050407 ,   5.80050407 ,   80.0000000
0000000013,   1.00000000 ,   1.00000000 ,   0.00000000 ,   5.80050438 ,   5.80050438 ,   80.0000000
0000000014,   2.00000000 ,   1.00000000 ,   0.00000000 ,   5.80050518 ,   5.80050518 ,   80.0000000
0000000015,   3.00000000 ,   1.00000000 ,   0.00000000 ,   5.80050615 ,   5.80050615 ,   80.0000000
0000000016,   4.00000000 ,   1.00000000 ,   0.00000000 ,   5.80050693 ,   5.80050693 ,   80.0000000
0000000017,   5.00000000 ,   1.00000000 ,   0.00000000 ,   5.80050722 ,   5.80050722 ,   80.0000000
0000000018,   6.00000000 ,   1.00000000 ,   0.00000000 ,   5.80050693 ,   5.80050693 ,   80.0000000
0000000019,   7.00000000 ,   1.00000000 ,   0.00000000 ,   5.80050615 ,   5.80050615 ,   80.0000000
0000000020,   8.00000000 ,   1.00000000 ,   0.00000000 ,   5.80050518 ,   5.80050518 ,   80.0000000
0000000021,   9.00000000 ,   1.00000000 ,   0.00000000 ,   5.80050438 ,   5.80050438 ,   80.0000000
0000000022,   10.0000000 ,   1.00000000 ,   0.00000000 ,   5.80050407 ,   5.80050407 ,   80.0000000
0000000023,   0.00000000 ,   2.00000000 ,   0.00000000 ,   5.60081688 ,   5.60081688 ,   80.0000000
0000000024,   1.00000000 ,   2.00000000 ,   0.00000000 ,   5.60081760 ,   5.60081760 ,   80.0000000
0000000025,   2.00000000 ,   2.00000000 ,   0.00000000 ,   5.60081945 ,   5.60081945 ,   80.0000000
0000000026,   3.00000000 ,   2.00000000 ,   0.00000000 ,   5.60082168 ,   5.60082168 ,   80.0000000
0000000027,   4.00000000 ,   2.00000000 ,   0.00000000 ,   5.60082344 ,   5.60082344 ,   80.0000000
0000000028,   5.00000000 ,   2.00000000 ,   0.00000000 ,   5.60082411 ,   5.60082411 ,   80.0000000
0000000029,   6.00000000 ,   2.00000000 ,   0.00000000 ,   5.60082344 ,   5.60082344 ,   80.0000000
0000000030,   7.00000000 ,   2.00000000 ,   0.00000000 ,   5.60082168 ,   5.60082168 ,   80.0000000
0000000031,   8.00000000 ,   2.00000000 ,   0.00000000 ,   5.60081945 ,   5.60081945 ,   80.0000000
0000000032,   9.00000000 ,   2.00000000 ,   0.00000000 ,   5.60081760 ,   5.60081760 ,   80.0000000
0000000033,   10.0000000 ,   2.00000000 ,   0.00000000 ,   5.60081688 ,   5.60081688 ,   80.0000000
0000000034,   0.00000000 ,   3.00000000 ,   0.00000000 ,   5.40131934 ,   5.40131934 ,   80.0000000
0000000035,   1.00000000 ,   3.00000000 ,   0.00000000 ,   5.40132068 ,   5.40132068 ,   80.0000000
0000000036,   2.00000000 ,   3.00000000 ,   0.00000000 ,   5.40132409 ,   5.40132409 ,   80.0000000
0000000037,   3.00000000 ,   3.00000000 ,   0.00000000 ,   5.40132817 ,   5.40132817 ,   80.0000000
0000000038,   4.00000000 ,   3.00000000 ,   0.00000000 ,   5.40133136 ,   5.40133136 ,   80.0000000
0000000039,   5.00000000 ,   3.00000000 ,   0.00000000 ,   5.40133256 ,   5.40133256 ,   80.0000000
0000000040,   6.00000000 ,   3.00000000 ,   0.00000000 ,   5.40133136 ,   5.40133136 ,   80.0000000
0000000041,   7.00000000 ,   3.00000000 ,   0.00000000 ,   5.40132817 ,   5.40132817 ,   80.0000000
0000000042,   8.00000000 ,   3.00000000 ,   0.00000000 ,   5.40132409 ,   5.40132409 ,   80.0000000
0000000043,   9.00000000 ,   3.00000000 ,   0.00000000 ,   5.40132068 ,   5.40132068 ,   80.0000000
0000000044,   10.0000000 ,   3.00000000 ,   0.00000000 ,   5.40131934 ,   5.40131934 ,   80.0000000
0000000045,   0.00000000 ,   4.00000000 ,   0.00000000 ,   5.20198590 ,   5.20198590 ,   80.0000000
0000000046,   1.00000000 ,   4.00000000 ,   0.00000000 ,   5.20198825 ,   5.20198825 ,   80.0000000
0000000047,   2.00000000 ,   4.00000000 ,   0.00000000 ,   5.20199415 ,   5.20199415 ,   80.0000000
0000000048,   3.00000000 ,   4.00000000 ,   0.00000000 ,   5.20200104 ,   5.20200104 ,   80.0000000
0000000049,   4.00000000 ,   4.00000000 ,   0.00000000 ,   5.20200636 ,   5.20200636 ,   80.0000000
0000000050,   5.00000000 ,   4.00000000 ,   0.00000000 ,   5.20200833 ,   5.20200833 ,   80.0000000
0000000051,   6.00000000 ,   4.00000000 ,   0.00000000 ,   5.20200636 ,   5.20200636 ,   80.0000000
0000000052,   7.00000000 ,   4.00000000 ,   0.00000000 ,   5.20200104 ,   5.20200104 ,   80.0000000
0000000053,   8.00000000 ,   4.00000000 ,   0.00000000 ,   5.20199415 ,   5.20199415 ,   80.0000000
0000000054,   9.00000000 ,   4.00000000 ,   0.00000000 ,   5.20198825 ,   5.20198825 ,   80.0000000
0000000055,   10.0000000 ,   4.00000000 ,   0.00000000 ,   5.20198590 ,   5.20198590 ,   80.0000000
0000000056,   0.00000000 ,   5.00000000 ,   0.00000000 ,   5.00266562 ,   5.00266562 ,   80.0000000
0000000057,   1.00000000 ,   5.00000000 ,   0.00000000 ,   5.00266962 ,   5.00266962 ,   80.0000000
0000000058,   2.00000000 ,   5.00000000 ,   0.00000000 ,   5.00267937 ,   5.00267937 ,   80.0000000
0000000059,   3.00000000 ,   5.00000000 ,   0.00000000 ,   5.00269041 ,   5.00269041 ,   80.0000000
0000000060,   4.00000000 ,   5.00000000 ,   0.00000000 ,   5.00269871 ,   5.00269871 ,   80.0000000
0000000061,   5.00000000 ,   5.00000000 ,   0.00000000 ,   5.00270175 ,   5.00270175 ,   80.0000000
0000000062,   6.00000000 ,   5.00000000 ,   0.00000000 ,   5.00269871 ,   5.00269871 ,   80.0000000
0000000063,   7.00000000 ,   5.00000000 ,   0.00000000 ,   5.00269041 ,   5.00269041 ,   80.0000000
0000000064,   8.00000000 ,   5.00000000 ,   0.00000000 ,   5.00267937 ,   5.00267937 ,   80.0000000
0000000065,   9.00000000 ,   5.00000000 ,   0.00000000 ,   5.00266962 ,   5.00266962 ,   80.0000000
0000000066,   10.0000000 ,   5.00000000 ,   0.00000000 ,   5.00266562 ,   5.00266562 ,   80.0000000
0000000067,   0.00000000 ,   6.00000000 ,   0.00000000 ,   4.80319573 ,   4.80319573 ,   80.0000000
0000000068,   1.00000000 ,   6.00000000 ,   0.00000000 ,   4.80320248 ,   4.80320248 ,   80.0000000
0000000069,   2.00000000 ,   6.00000000 ,   0.00000000 ,   4.80321806 ,   4.80321806 ,   80.0000000
0000000070,   3.00000000 ,   6.00000000 ,   0.00000000 ,   4.80323485 ,   4.80323485 ,   80.0000000
0000000071,   4.00000000 ,   6.00000000 ,   0.00000000 ,   4.80324701 ,   4.80324701 ,   80.0000000
0000000072,   5.00000000 ,   6.00000000 ,   0.00000000 ,   4.80325138 ,   4.80325138 ,   80.0000000
0000000073,   6.00000000 ,   6.00000000 ,   0.00000000 ,   4.80324701 ,   4.80324701 ,   80.0000000
0000000074,   7.00000000 ,   6.00000000 ,   0.00000000 ,   4.80323485 ,   4.80323485 ,   80.0000000
0000000075,   8.00000000 ,   6.00000000 ,   0.00000000 ,   4.80321806 ,   4.80321806 ,   80.0000000
0000000076,   9.00000000 ,   6.00000000 ,   0.00000000 ,   4.80320248 ,   4.80320248 ,   80.0000000
0000000077,   10.0000000 ,   6.00000000 ,   0.00000000 ,   4.80319573 ,   4.80319573 ,   80.0000000
0000000078,   0.00000000 ,   7.00000000 ,   0.00000000 ,   4.60340805 ,   4.60340805 ,   80.0000000
0000000079,   1.00000000 ,   7.00000000 ,   0.00000000 ,   4.60341912 ,   4.60341912 ,   80.0000000
0000000080,   2.00000000 ,   7.00000000 ,   0.00000000 ,   4.60344242 ,   4.60344242 ,   80.0000000
0000000081,   3.00000000 ,   7.00000000 ,   0.00000000 ,   4.60346576 ,   4.60346576 ,   80.0000000
0000000082,   4.00000000 ,   7.00000000 ,   0.00000000 ,   4.60348179 ,   4.60348179 ,   80.0000000
0000000083,   5.00000000 ,   7.00000000 ,   0.00000000 ,   4.60348740 ,   4.60348740 ,   80.0000000
0000000084,   6.00000000 ,   7.00000000 ,   0.00000000 ,   4.60348179 ,   4.60348179 ,   80.0000000
0000000085,   7.00000000 ,   7.00000000 ,   0.00000000 ,   4.60346576 ,   4.60346576 ,   80.0000000
0000000086,   8.00000000 ,   7.00000000 ,   0.00000000 ,   4.60344242 ,   4.60344242 ,   80.0000000
0000000087,   9.00000000 ,   7.00000000 ,   0.00000000 ,   4.60341912 ,   4.60341912 ,   80.0000000
0000000088,   10.0000000 ,   7.00000000 ,   0.00000000 ,   4.60340805 ,   4.60340805 ,   80.0000000
0000000089,   0.00000000 ,   8.00000000 ,   0.00000000 ,   4.40311718 ,   4.40311718 ,   80.0000000
0000000090,   1.00000000 ,   8.00000000 ,   0.00000000 ,   4.40313390 ,   4.40313390 ,   80.0000000
0000000091,   2.00000000 ,   8.00000000 ,   0.00000000 ,   4.40316427 ,   4.40316427 ,   80.0000000
0000000092,   3.00000000 ,   8.00000000 ,   0.00000000 ,   4.40319167 ,   4.40319167 ,   80.0000000
0000000093,   4.00000000 ,   8.00000000 ,   0.00000000 ,   4.40320922 ,   4.40320922 ,   80.0000000
0000000094,   5.00000000 ,   8.00000000 ,   0.00000000 ,   4.40321515 ,   4.40321515 ,   80.0000000
0000000095,   6.00000000 ,   8.00000000 ,   0.00000000 ,   4.40320922 ,   4.40320922 ,   80.0000000
0000000096,   7.00000000 ,   8.00000000 ,   0.00000000 ,   4.40319167 ,   4.40319167 ,   80.0000000
0000000097,   8.00000000 ,   8.00000000 ,   0.00000000 ,   4.40316427 ,   4.40316427 ,   80.0000000
0000000098,   9.00000000 ,   8.00000000 ,   0.00000000 ,   4.40313390 ,   4.40313390 ,   80.0000000
0000000099,   10.0000000 ,   8.00000000 ,   0.00000000 ,   4.40311718 ,   4.40311718 ,   80.0000000
0000000100,   0.00000000 ,   9.00000000 ,   0.00000000 ,   4.20209337 ,   4.20209337 ,   80.0000000
0000000101,   1.00000000 ,   9.00000000 ,   0.00000000 ,   4.20211216 ,   4.20211216 ,   80.0000000
0000000102,   2.00000000 ,   9.00000000 ,   0.00000000 ,   4.20213975 ,   4.20213975 ,   80.0000000
0000000103,   3.00000000 ,   9.00000000 ,   0.00000000 ,   4.20216152 ,   4.20216152 ,   80.0000000
0000000104,   4.00000000 ,   9.00000000 ,   0.00000000 ,   4.20217436 ,   4.20217436 ,   80.0000000
0000000105,   5.00000000 ,   9.00000000 ,   0.00000000 ,   4.20217853 ,   4.20217853 ,   80.0000000
0000000106,   6.00000000 ,   9.00000000 ,   0.00000000 ,   4.20217436 ,   4.20217436 ,   80.0000000
0000000107,   7.00000000 ,   9.00000000 ,   0.00000000 ,   4.20216152 ,   4.20216152 ,   80.0000000
0000000108,   8.00000000 ,   9.00000000 ,   0.00000000 ,   4.20213975 ,   4.20213975 ,   80.0000000
0000000109,   9.00000000 ,   9.00000000 ,   0.00000000 ,   4.20211216 ,   4.20211216 ,   80.0000000
0000000110,   10.0000000 ,   9.00000000 ,   0.00000000 ,   4.20209337 ,   4.20209337 ,   80.0000000
0000000111,   0.00000000 ,   10.0000000 ,   0.00000000 ,   4.00000000 ,   4.00000000 ,   80.0000000
0000000112,   1.00000000 ,   10.0000000 ,   0.00000000 ,   4.00000000 ,   4.00000000 ,   80.0000000
0000000113,   2.00000000 ,   10.0000000 ,   0.00000000 ,   4.00000000 ,   4.00000000 ,   80.0000000
0000000114,   3.00000000 ,   10.0000000 ,   0.00000000 ,   4.00000000 ,   4.00000000 ,   80.0000000
0000000115,   4.00000000 ,   10.0000000 ,   0.00000000 ,   4.00000000 ,   4.00000000 ,   80.0000000
0000000116,   5.00000000 ,   10.0000000 ,   0.00000000 ,   4.00000000 ,   4.00000000 ,   80.0000000
0000000117,   6.00000000 ,   10.0000000 ,   0.00000000 ,   4.00000000 ,   4.00000000 ,   80.0000000
0000000118,   7.00000000 ,   10.0000000 ,   0.00000000 ,   4.00000000 ,   4.00000000 ,   80.0000000
0000000119,   8.00000000 ,   10.0000000 ,   0.00000000 ,   4.00000000 ,   4.00000000 ,   80.0000000
0000000120,   9.00000000 ,   10.0000000 ,   0.00000000 ,   4.00000000 ,   4.00000000 ,   80.0000000
0000000121,   10.0000000 ,   10.0000000 ,   0.00000000 ,   4.00000000 ,   4.00000000 ,   80.0000000
0000000122,   0.00000000 ,   0.00000000 ,   1.00000000 ,   6.00000000 ,   6.00000000 ,   67.1200294
0000000123,   1.00000000 ,   0.00000000 ,   1.00000000 ,   6.00000000 ,   6.00000000 ,   67.1200349
0000000124,   2.00000000 ,   0.00000000 ,   1.00000000 ,   6.00000000 ,   6.00000000 ,   67.1200490
0000000125,   3.00000000 ,   0.00000000 ,   1.00000000 ,   6.00000000 ,   6.00000000 ,   67.1200661
0000000126,   4.00000000 ,   0.00000000 ,   1.00000000 ,   6.00000000 ,   6.00000000 ,   67.1200797
0000000127,   5.00000000 ,   0.00000000 ,   1.00000000 ,   6.00000000 ,   6.00000000 ,   67.1200849
0000000128,   6.00000000 ,   0.00000000 ,   1.00000000 ,   6.00000000 ,   6.00000000 ,   67.1200797
0000000129,   7.00000000 ,   0.00000000 ,   1.00000000 ,   6.00000000 ,   6.00000000 ,   67.1200661
0000000130,   8.00000000 ,   0.00000000 ,   1.00000000 ,   6.00000000 ,   6.00000000 ,   67.1200490
0000000131,   9.00000000 ,   0.00000000 ,   1.00000000 ,   6.00000000 ,   6.00000000 ,   67.1200349
0000000132,   10.0000000 ,   0.00000000 ,   1.00000000 ,   6.00000000 ,   6.00000000 ,   67.1200294
0000000133,   0.00000000 ,   1.00000000 ,   1.00000000 ,   5.79203627 ,   5.79203627 ,   69.7090141
0000000134,   1.00000000 ,   1.00000000 ,   1.00000000 ,   5.79203675 ,   5.79203675 ,   69.7090169
0000000135,   2.00000000 ,   1.00000000 ,   1.00000000 ,   5.79203799 ,   5.79203799 ,   69.7090242
0000000136,   3.00000000 ,   1.00000000 ,   1.00000000 ,   5.79203948 ,   5.79203948 ,   69.7090334
0000000137,   4.00000000 ,   1.00000000 ,   1.00000000 ,   5.79204065 ,   5.79204065 ,   69.7090408
0000000138,   5.00000000 ,   1.00000000 ,   1.00000000 ,   5.79204109 ,   5.79204109 ,   69.7090436
0000000139,   6.00000000 ,   1.00000000 ,   1.00000000 ,   5.79204065 ,   5.79204065 ,   69.7090408
0000000140,   7.00000000 ,   1.00000000 ,   1.00000000 ,   5.79203948 ,   5.79203948 ,   69.7090334
0000000141,   8.00000000 ,   1.00000000 ,   1.00000000 ,   5.79203799 ,   5.79203799 ,   69.7090242
0000000142,   9.00000000 ,   1.00000000 ,   1.00000000 ,   5.79203675 ,   5.79203675 ,   69.7090169
0000000143,   10.0000000 ,   1.00000000 ,   1.00000000 ,   5.79203627 ,   5.79203627 ,   69.7090141
0000000144,   0.00000000 ,   2.00000000 ,   1.00000000 ,   5.59030881 ,   5.59030881 ,   70.9482967
0000000145,   1.00000000 ,   2.00000000 ,   1.00000000 ,   5.59030997 ,   5.59030997 ,   70.9482959
0000000146,   2.00000000 ,   2.00000000 ,   1.00000000 ,   5.59031292 ,   5.59031292 ,   70.9482952
0000000147,   3.00000000 ,   2.00000000 ,   1.00000000 ,   5.59031643 ,   5.59031643 ,   70.9482959
0000000148,   4.00000000 ,   2.00000000 ,   1.00000000 ,   5.59031918 ,   5.59031918 ,   70.9482974
0000000149,   5.00000000 ,   2.00000000 ,   1.00000000 ,   5.59032020 ,   5.59032020 ,   70.9482981
0000000150,   6.00000000 ,   2.00000000 ,   1.00000000 ,   5.59031918 ,   5.59031918 ,   70.9482974
0000000151,   7.00000000 ,   2.00000000 ,   1.00000000 ,   5.59031643 ,   5.59031643 ,   70.9482959
0000000152,   8.00000000 ,   2.00000000 ,   1.00000000 ,   5.59031292 ,   5.59031292 ,   70.9482952
0000000153,   9.00000000 ,   2.00000000 ,   1.00000000 ,   5.59030997 ,   5.59030997 ,   70.9482959
0000000154,   10.0000000 ,   2.00000000 ,   1.00000000 ,   5.59030881 ,   5.59030881 ,   70.9482967
0000000155,   0.00000000 ,   3.00000000 ,   1.00000000 ,   5.39093455 ,   5.39093455 ,   71.5428108
0000000156,   1.00000000 ,   3.00000000 ,   1.00000000 ,   5.39093694 ,   5.39093694 ,   71.5427984
0000000157,   2.00000000 ,   3.00000000 ,   1.00000000 ,   5.39094291 ,   5.39094291 ,   71.5427763
0000000158,   3.00000000 ,   3.00000000 ,   1.00000000 ,   5.39094984 ,   5.39094984 ,   71.5427587
0000000159,   4.00000000 ,   3.00000000 ,   1.00000000 ,   5.39095515 ,   5.39095515 ,   71.5427491
0000000160,   5.00000000 ,   3.00000000 ,   1.00000000 ,   5.39095712 ,   5.39095712 ,   71.5427462
0000000161,   6.00000000 ,   3.00000000 ,   1.00000000 ,   5.39095515 ,   5.39095515 ,   71.5427491
0000000162,   7.00000000 ,   3.00000000 ,   1.00000000 ,   5.39094984 ,   5.39094984 ,   71.5427587
0000000163,   8.00000000 ,   3.00000000 ,   1.00000000 ,   5.39094291 ,   5.39094291 ,   71.5427763
0000000164,   9.00000000 ,   3.00000000 ,   1.00000000 ,   5.39093694 ,   5.39093694 ,   71.5427984
0000000165,   10.0000000 ,   3.00000000 ,   1.00000000 ,   5.39093455 ,   5.39093455 ,   71.5428108
0000000166,   0.00000000 ,   4.00000000 ,   1.00000000 ,   5.19234687 ,   5.19234687 ,   71.8266874
0000000167,   1.00000000 ,   4.00000000 ,   1.00000000 ,   5.19235177 ,   5.19235177 ,   71.8266174
0000000168,   2.00000000 ,   4.00000000 ,   1.00000000 ,   5.19236354 ,   5.19236354 ,   71.8265051
0000000169,   3.00000000 ,   4.00000000 ,   1.00000000 ,   5.19237668 ,   5.19237668 ,   71.8264211
0000000170,   4.00000000 ,   4.00000000 ,   1.00000000 ,   5.19238643 ,   5.19238643 ,   71.8263769
0000000171,   5.00000000 ,   4.00000000 ,   1.00000000 ,   5.19238998 ,   5.19238998 ,   71.8263639
0000000172,   6.00000000 ,   4.00000000 ,   1.00000000 ,   5.19238643 ,   5.19238643 ,   71.8263769
0000000173,   7.00000000 ,   4.00000000 ,   1.00000000 ,   5.19237668 ,   5.19237668 ,   71.8264211
0000000174,   8.00000000 ,   4.00000000 ,   1.00000000 ,   5.19236354 ,   5.19236354 ,   71.8265051
0000000175,   9.00000000 ,   4.00000000 ,   1.00000000 ,   5.19235177 ,   5.19235177 ,   71.8266174
0000000176,   10.0000000 ,   4.00000000 ,   1.00000000 ,   5.19234687 ,   5.19234687 ,   71.8266874
0000000177,   0.00000000 ,   5.00000000 ,   1.00000000 ,   4.99390169 ,   4.99390169 ,   71.9626611
0000000178,   1.00000000 ,   5.00000000 ,   1.00000000 ,   4.99391216 ,   4.99391216 ,   71.9622730
0000000179,   2.00000000 ,   5.00000000 ,   1.00000000 ,   4.99393559 ,   4.99393559 ,   71.9617444
0000000180,   3.00000000 ,   5.00000000 ,   1.00000000 ,   4.99396010 ,   4.99396010 ,   71.9613972
0000000181,   4.00000000 ,   5.00000000 ,   1.00000000 ,   4.99397745 ,   4.99397745 ,   71.9612329
0000000182,   5.00000000 ,   5.00000000 ,   1.00000000 ,   4.99398361 ,   4.99398361 ,   71.9611872
0000000183,   6.00000000 ,   5.00000000 ,   1.00000000 ,   4.99397745 ,   4.99397745 ,   71.9612329
0000000184,   7.00000000 ,   5.00000000 ,   1.00000000 ,   4.99396010 ,   4.99396010 ,   71.9613972
0000000185,   8.00000000 ,   5.00000000 ,   1.00000000 ,   4.99393558 ,   4.99393558 ,   71.9617444
0000000186,   9.00000000 ,   5.00000000 ,   1.00000000 ,   4.99391216 ,   4.99391216 ,   71.9622730
0000000187,   10.0000000 ,   5.00000000 ,   1.00000000 ,   4.99390169 ,   4.99390169 ,   71.9626611
0000000188,   0.00000000 ,   6.00000000 ,   1.00000000 ,   4.79532935 ,   4.79532935 ,   72.0329557
0000000189,   1.00000000 ,   6.00000000 ,   1.00000000 ,   4.79535321 ,   4.79535321 ,   72.0306750
0000000190,   2.00000000 ,   6.00000000 ,   1.00000000 ,   4.79540037 ,   4.79540037 ,   72.0281457
0000000191,   3.00000000 ,   6.00000000 ,   1.00000000 ,   4.79544509 ,   4.79544509 ,   72.0267143
0000000192,   4.00000000 ,   6.00000000 ,   1.00000000 ,   4.79547458 ,   4.79547458 ,   72.0261107
0000000193,   5.00000000 ,   6.00000000 ,   1.00000000 ,   4.79548466 ,   4.79548466 ,   72.0259542
0000000194,   6.00000000 ,   6.00000000 ,   1.00000000 ,   4.79547458 ,   4.79547458 ,   72.0261107
0000000195,   7.00000000 ,   6.00000000 ,   1.00000000 ,   4.79544509 ,   4.79544509 ,   72.0267143
0000000196,   8.00000000 ,   6.00000000 ,   1.00000000 ,   4.79540037 ,   4.79540037 ,   72.0281457
0000000197,   9.00000000 ,   6.00000000 ,   1.00000000 ,   4.79535321 ,   4.79535321 ,   72.0306750
0000000198,   10.0000000 ,   6.00000000 ,   1.00000000 ,   4.79532935 ,   4.79532935 ,   72.0329557
0000000199,   0.00000000 ,   7.00000000 ,   1.00000000 ,   4.59651538 ,   4.59651538 ,   72.0954008
0000000200,   1.00000000 ,   7.00000000 ,   1.00000000 ,   4.59657399 ,   4.59657399 ,   72.0813912
0000000201,   2.00000000 ,   7.00000000 ,   1.00000000 ,   4.59666868 ,   4.59666868 ,   72.0694848
0000000202,   3.00000000 ,   7.00000000 ,   1.00000000 ,   4.59674633 ,   4.59674633 ,   72.0638781
0000000203,   4.00000000 ,   7.00000000 ,   1.00000000 ,   4.59679260 ,   4.59679260 ,   72.0618190
0000000204,   5.00000000 ,   7.00000000 ,   1.00000000 ,   4.59680762 ,   4.59680762 ,   72.0613279
0000000205,   6.00000000 ,   7.00000000 ,   1.00000000 ,   4.59679260 ,   4.59679260 ,   72.0618190
0000000206,   7.00000000 ,   7.00000000 ,   1.00000000 ,   4.59674633 ,   4.59674633 ,   72.0638781
0000000207,   8.00000000 ,   7.00000000 ,   1.00000000 ,   4.59666868 ,   4.59666868 ,   72.0694848
0000000208,   9.00000000 ,   7.00000000 ,   1.00000000 ,   4.59657399 ,   4.59657399 ,   72.0813912
0000000209,   10.0000000 ,   7.00000000 ,   1.00000000 ,   4.59651538 ,   4.59651538 ,   72.0954008
0000000210,   0.00000000 ,   8.00000000 ,   1.00000000 ,   4.39742114 ,   4.39742114 ,   72.2640731
0000000211,   1.00000000 ,   8.00000000 ,   1.00000000 ,   4.39757091 ,   4.39757091 ,   72.1742091
0000000212,   2.00000000 ,   8.00000000 ,   1.00000000 ,   4.39774980 ,   4.39774980 ,   72.1204106
0000000213,   3.00000000 ,   8.00000000 ,   1.00000000 ,   4.39786949 ,   4.39786949 ,   72.1002910
0000000214,   4.00000000 ,   8.00000000 ,   1.00000000 ,   4.39793161 ,   4.39793161 ,   72.0940361
0000000215,   5.00000000 ,   8.00000000 ,   1.00000000 ,   4.39795040 ,   4.39795040 ,   72.0926849
0000000216,   6.00000000 ,   8.00000000 ,   1.00000000 ,   4.39793161 ,   4.39793161 ,   72.0940361
0000000217,   7.00000000 ,   8.00000000 ,   1.00000000 ,   4.39786949 ,   4.39786949 ,   72.1002910
0000000218,   8.00000000 ,   8.00000000 ,   1.00000000 ,   4.39774980 ,   4.39774980 ,   72.1204106
0000000219,   9.00000000 ,   8.00000000 ,   1.00000000 ,   4.39757091 ,   4.39757091 ,   72.1742091
0000000220,   10.0000000 ,   8.00000000 ,   1.00000000 ,   4.39742114 ,   4.39742114 ,   72.2640731
0000000221,   0.00000000 ,   9.00000000 ,   1.00000000 ,   4.19817295 ,   4.19817295 ,   73.0398560
0000000222,   1.00000000 ,   9.00000000 ,   1.00000000 ,   4.19850615 ,   4.19850615 ,   72.4393610
0000000223,   2.00000000 ,   9.00000000 ,   1.00000000 ,   4.19876686 ,   4.19876686 ,   72.2186841
0000000224,   3.00000000 ,   9.00000000 ,   1.00000000 ,   4.19889953 ,   4.19889953 ,   72.1574312
0000000225,   4.00000000 ,   9.00000000 ,   1.00000000 ,   4.19895698 ,   4.19895698 ,   72.1418474
0000000226,   5.00000000 ,   9.00000000 ,   1.00000000 ,   4.19897284 ,   4.19897284 ,   72.1388457
0000000227,   6.00000000 ,   9.00000000 ,   1.00000000 ,   4.19895698 ,   4.19895698 ,   72.1418474
0000000228,   7.00000000 ,   9.00000000 ,   1.00000000 ,   4.19889953 ,   4.19889953 ,   72.1574312
0000000229,   8.00000000 ,   9.00000000 ,   1.00000000 ,   4.19876686 ,   4.19876686 ,   72.2186841
0000000230,   9.00000000 ,   9.00000000 ,   1.00000000 ,   4.19850615 ,   4.19850615 ,   72.4393610
0000000231,   10.0000000 ,   9.00000000 ,   1.00000000 ,   4.19817295 ,   4.19817295 ,   73.0398560
0000000232,   0.00000000 ,   10.0000000 ,   1.00000000 ,   4.00000000 ,   4.00000000 ,   77.1998360
0000000233,   1.00000000 ,   10.0000000 ,   1.00000000 ,   4.00000000 ,   4.00000000 ,   73.0331509
0000000234,   2.00000000 ,   10.0000000 ,   1.00000000 ,   4.00000000 ,   4.00000000 ,   72.3483080
0000000235,   3.00000000 ,   10.0000000 ,   1.00000000 ,   4.00000000 ,   4.00000000 ,   72.2216885
0000000236,   4.00000000 ,   10.0000000 ,   1.00000000 ,   4.00000000 ,   4.00000000 ,   72.1960228
0000000237,   5.00000000 ,   10.0000000 ,   1.00000000 ,   4.00000000 ,   4.00000000 ,   72.1916019
0000000238,   6.00000000 ,   10.0000000 ,   1.00000000 ,   4.00000000 ,   4.00000000 ,   72.1960228
0000000239,   7.00000000 ,   10.0000000 ,   1.00000000 ,   4.00000000 ,   4.00000000 ,   72.2216885
0000000240,   8.00000000 ,   10.0000000 ,   1.00000000 ,   4.00000000 ,   4.00000000 ,   72.3483080
0000000241,   9.00000000 ,   10.0000000 ,   1.00000000 ,   4.00000000 ,   4.00000000 ,   73.0331509
0000000242,   10.0000000 ,   10.0000000 ,   1.00000000 ,   4.00000000 ,   4.00000000 ,   77.1998360
0000000243,   0.00000000 ,   0.00000000 ,   2.00000000 ,   6.00000000 ,   6.00000000 ,   62.7987083
0000000244,   1.00000000 ,   0.00000000 ,   2.00000000 ,   6.00000000 ,   6.00000000 ,   62.7987114
0000000245,   2.00000000 ,   0.00000000 ,   2.00000000 ,   6.00000000 ,   6.00000000 ,   62.7987195
0000000246,   3.00000000 ,   0.00000000 ,   2.00000000 ,   6.00000000 ,   6.00000000 ,   62.7987294
0000000247,   4.00000000 ,   0.00000000 ,   2.00000000 ,   6.00000000 ,   6.00000000 ,   62.7987373
0000000248,   5.00000000 ,   0.00000000 ,   2.00000000 ,   6.00000000 ,   6.00000000 ,   62.7987403
0000000249,   6.00000000 ,   0.00000000 ,   2.00000000 ,   6.00000000 ,   6.00000000 ,   62.7987373
0000000250,   7.00000000 ,   0.00000000 ,   2.00000000 ,   6.00000000 ,   6.00000000 ,   62.7987294
0000000251,   8.00000000 ,   0.00000000 ,   2.00000000 ,   6.00000000 ,   6.00000000 ,   62.7987195
0000000252,   9.00000000 ,   0.00000000 ,   2.00000000 ,   6.00000000 ,   6.00000000 ,   62.7987114
0000000253,   10.0000000 ,   0.00000000 ,   2.00000000 ,   6.00000000 ,   6.00000000 ,   62.7987083
0000000254,   0.00000000 ,   1.00000000 ,   2.00000000 ,   5.79234386 ,   5.79234386 ,   64.2527453
0000000255,   1.00000000 ,   1.00000000 ,   2.00000000 ,   5.79234437 ,   5.79234437 ,   64.2527470
0000000256,   2.00000000 ,   1.00000000 ,   2.00000000 ,   5.79234567 ,   5.79234567 ,   64.2527518
0000000257,   3.00000000 ,   1.00000000 ,   2.00000000 ,   5.79234724 ,   5.79234724 ,   64.2527579
0000000258,   4.00000000 ,   1.00000000 ,   2.00000000 ,   5.79234847 ,   5.79234847 ,   64.2527631
0000000259,   5.00000000 ,   1.00000000 ,   2.00000000 ,   5.79234894 ,   5.79234894 ,   64.2527650
0000000260,   6.00000000 ,   1.00000000 ,   2.00000000 ,   5.79234847 ,   5.79234847 ,   64.2527631
0000000261,   7.00000000 ,   1.00000000 ,   2.00000000 ,   5.79234724 ,   5.79234724 ,   64.2527579
0000000262,   8.00000000 ,   1.00000000 ,   2.00000000 ,   5.79234567 ,   5.79234567 ,   64.2527518
0000000263,   9.00000000 ,   1.00000000 ,   2.00000000 ,   5.79234437 ,   5.79234437 ,   64.2527470
0000000264,   10.0000000 ,   1.00000000 ,   2.00000000 ,   5.79234386 ,   5.79234386 ,   64.2527453
0000000265,   0.00000000 ,   2.00000000 ,   2.00000000 ,   5.58889841 ,   5.58889841 ,   65.1836476
0000000266,   1.00000000 ,   2.00000000 ,   2.00000000 ,   5.58889964 ,   5.58889964 ,   65.1836459
0000000267,   2.00000000 ,   2.00000000 ,   2.00000000 ,   5.58890277 ,   5.58890277 ,   65.1836435
0000000268,   3.00000000 ,   2.00000000 ,   2.00000000 ,   5.58890650 ,   5.58890650 ,   65.1836427
0000000269,   4.00000000 ,   2.00000000 ,   2.00000000 ,   5.58890941 ,   5.58890941 ,   65.1836431
0000000270,   5.00000000 ,   2.00000000 ,   2.00000000 ,   5.58891050 ,   5.58891050 ,   65.1836435
0000000271,   6.00000000 ,   2.00000000 ,   2.00000000 ,   5.58890941 ,   5.58890941 ,   65.1836431
0000000272,   7.00000000 ,   2.00000000 ,   2.00000000 ,   5.58890650 ,   5.58890650 ,   65.1836427
0000000273,   8.00000000 ,   2.00000000 ,   2.00000000 ,   5.58890277 ,   5.58890277 ,   65.1836435
0000000274,   9.00000000 ,   2.00000000 ,   2.00000000 ,   5.58889964 ,   5.58889964 ,   65.1836459
0000000275,   10.0000000 ,   2.00000000 ,   2.00000000 ,   5.58889841 ,   5.58889841 ,   65.1836476
0000000276,   0.00000000 ,   3.00000000 ,   2.00000000 ,   5.38799696 ,   5.38799696 ,   65.7207622
0000000277,   1.00000000 ,   3.00000000 ,   2.00000000 ,   5.38799948 ,   5.38799948 ,   65.7207467
0000000278,   2.00000000 ,   3.00000000 ,   2.00000000 ,   5.38800579 ,   5.38800579 ,   65.7207183
0000000279,   3.00000000 ,   3.00000000 ,   2.00000000 ,   5.38801314 ,   5.38801314 ,   65.7206953
0000000280,   4.00000000 ,   3.00000000 ,   2.00000000 ,   5.38801879 ,   5.38801879 ,   65.7206827
0000000281,   5.00000000 ,   3.00000000 ,   2.00000000 ,   5.38802088 ,   5.38802088 ,   65.7206789
0000000282,   6.00000000 ,   3.00000000 ,   2.00000000 ,   5.38801879 ,   5.38801879 ,   65.7206827
0000000283,   7.00000000 ,   3.00000000 ,   2.00000000 ,   5.38801314 ,   5.38801314 ,   65.7206953
0000000284,   8.00000000 ,   3.00000000 ,   2.00000000 ,   5.38800579 ,   5.38800579 ,   65.7207183
0000000285,   9.00000000 ,   3.00000000 ,   2.00000000 ,   5.38799948 ,   5.38799948 ,   65.7207467
0000000286,   10.0000000 ,   3.00000000 ,   2.00000000 ,   5.38799696 ,   5.38799696 ,   65.7207622
0000000287,   0.00000000 ,   4.00000000 ,   2.00000000 ,   5.18847743 ,   5.18847743 ,   66.0113684
0000000288,   1.00000000 ,   4.00000000 ,   2.00000000 ,   5.18848253 ,   5.18848253 ,   66.0112846
0000000289,   2.00000000 ,   4.00000000 ,   2.00000000 ,   5.18849486 ,   5.18849486 ,   66.0111434
0000000290,   3.00000000 ,   4.00000000 ,   2.00000000 ,   5.18850871 ,   5.18850871 ,   66.0110343
0000000291,   4.00000000 ,   4.00000000 ,   2.00000000 ,   5.18851904 ,   5.18851904 ,   66.0109758
0000000292,   5.00000000 ,   4.00000000 ,   2.00000000 ,   5.18852282 ,   5.18852282 ,   66.0109583
0000000293,   6.00000000 ,   4.00000000 ,   2.00000000 ,   5.18851904 ,   5.18851904 ,   66.0109758
0000000294,   7.00000000 ,   4.00000000 ,   2.00000000 ,   5.18850871 ,   5.18850871 ,   66.0110343
0000000295,   8.00000000 ,   4.00000000 ,   2.00000000 ,   5.18849486 ,   5.18849486 ,   66.0111434
0000000296,   9.00000000 ,   4.00000000 ,   2.00000000 ,   5.18848253 ,   5.18848253 ,   66.0112846
0000000297,   10.0000000 ,   4.00000000 ,   2.00000000 ,   5.18847743 ,   5.18847743 ,   66.0113684
0000000298,   0.00000000 ,   5.00000000 ,   2.00000000 ,   4.98965850 ,   4.98965850 ,   66.1631106
0000000299,   1.00000000 ,   5.00000000 ,   2.00000000 ,   4.98966912 ,   4.98966912 ,   66.1626721
0000000300,   2.00000000 ,   5.00000000 ,   2.00000000 ,   4.98969324 ,   4.98969324 ,   66.1620277
0000000301,   3.00000000 ,   5.00000000 ,   2.00000000 ,   4.98971880 ,   4.98971880 ,   66.1615787
0000000302,   4.00000000 ,   5.00000000 ,   2.00000000 ,   4.98973704 ,   4.98973704 ,   66.1613561
0000000303,   5.00000000 ,   5.00000000 ,   2.00000000 ,   4.98974355 ,   4.98974355 ,   66.1612925
0000000304,   6.00000000 ,   5.00000000 ,   2.00000000 ,   4.98973704 ,   4.98973704 ,   66.1613561
0000000305,   7.00000000 ,   5.00000000 ,   2.00000000 ,   4.98971880 ,   4.98971880 ,   66.1615787
0000000306,   8.00000000 ,   5.00000000 ,   2.00000000 ,   4.98969324 ,   4.98969324 ,   66.1620277
0000000307,   9.00000000 ,   5.00000000 ,   2.00000000 ,   4.98966912 ,   4.98966912 ,   66.1626721
0000000308,   10.0000000 ,   5.00000000 ,   2.00000000 ,   4.98965850 ,   4.98965850 ,   66.1631106
0000000309,   0.00000000 ,   6.00000000 ,   2.00000000 ,   4.79117668 ,   4.79117668 ,   66.2470645
0000000310,   1.00000000 ,   6.00000000 ,   2.00000000 ,   4.79119998 ,   4.79119998 ,   66.2447135
0000000311,   2.00000000 ,   6.00000000 ,   2.00000000 ,   4.79124741 ,   4.79124741 ,   66.2418403
0000000312,   3.00000000 ,   6.00000000 ,   2.00000000 ,   4.79129335 ,   4.79129335 ,   66.2400876
0000000313,   4.00000000 ,   6.00000000 ,   2.00000000 ,   4.79132407 ,   4.79132407 ,   66.2393025
0000000314,   5.00000000 ,   6.00000000 ,   2.00000000 ,   4.79133465 ,   4.79133465 ,   66.2390914
0000000315,   6.00000000 ,   6.00000000 ,   2.00000000 ,   4.79132407 ,   4.79132407 ,   66.2393025
0000000316,   7.00000000 ,   6.00000000 ,   2.00000000 ,   4.79129335 ,   4.79129335 ,   66.2400876
0000000317,   8.00000000 ,   6.00000000 ,   2.00000000 ,   4.79124741 ,   4.79124741 ,   66.2418403
0000000318,   9.00000000 ,   6.00000000 ,   2.00000000 ,   4.79119998 ,   4.79119998 ,   66.2447135
0000000319,   10.0000000 ,   6.00000000 ,   2.00000000 ,   4.79117668 ,   4.79117668 ,   66.2470645
0000000320,   0.00000000 ,   7.00000000 ,   2.00000000 ,   4.59285408 ,   4.59285408 ,   66.3232498
0000000321,   1.00000000 ,   7.00000000 ,   2.00000000 ,   4.59290824 ,   4.59290824 ,   66.3102415
0000000322,   2.00000000 ,   7.00000000 ,   2.00000000 ,   4.59300031 ,   4.59300031 ,   66.2977871
0000000323,   3.00000000 ,   7.00000000 ,   2.00000000 ,   4.59307848 ,   4.59307848 ,   66.2913532
0000000324,   4.00000000 ,   7.00000000 ,   2.00000000 ,   4.59312614 ,   4.59312614 ,   66.2888058
0000000325,   5.00000000 ,   7.00000000 ,   2.00000000 ,   4.59314179 ,   4.59314179 ,   66.2881687
0000000326,   6.00000000 ,   7.00000000 ,   2.00000000 ,   4.59312614 ,   4.59312614 ,   66.2888058
0000000327,   7.00000000 ,   7.00000000 ,   2.00000000 ,   4.59307848 ,   4.59307848 ,   66.2913532
0000000328,   8.00000000 ,   7.00000000 ,   2.00000000 ,   4.59300031 ,   4.59300031 ,   66.2977871
0000000329,   9.00000000 ,   7.00000000 ,   2.00000000 ,   4.59290824 ,   4.59290824 ,   66.3102415
0000000330,   10.0000000 ,   7.00000000 ,   2.00000000 ,   4.59285408 ,   4.59285408 ,   66.3232498
0000000331,   0.00000000 ,   8.00000000 ,   2.00000000 ,   4.39463482 ,   4.39463482 ,   66.5039975
0000000332,   1.00000000 ,   8.00000000 ,   2.00000000 ,   4.39476359 ,   4.39476359 ,   66.4297116
0000000333,   2.00000000 ,   8.00000000 ,   2.00000000 ,   4.39492987 ,   4.39492987 ,   66.3784652
0000000334,   3.00000000 ,   8.00000000 ,   2.00000000 ,   4.39504719 ,   4.39504719 ,   66.3569910
0000000335,   4.00000000 ,   8.00000000 ,   2.00000000 ,   4.39511027 ,   4.39511027 ,   66.3496568
0000000336,   5.00000000 ,   8.00000000 ,   2.00000000 ,   4.39512970 ,   4.39512970 ,   66.3479729
0000000337,   6.00000000 ,   8.00000000 ,   2.00000000 ,   4.39511027 ,   4.39511027 ,   66.3496568
0000000338,   7.00000000 ,   8.00000000 ,   2.00000000 ,   4.39504719 ,   4.39504719 ,   66.3569910
0000000339,   8.00000000 ,   8.00000000 ,   2.00000000 ,   4.39492987 ,   4.39492987 ,   66.3784652
0000000340,   9.00000000 ,   8.00000000 ,   2.00000000 ,   4.39476359 ,   4.39476359 ,   66.4297116
0000000341,   10.0000000 ,   8.00000000 ,   2.00000000 ,   4.39463482 ,   4.39463482 ,   66.5039975
0000000342,   0.00000000 ,   9.00000000 ,   2.00000000 ,   4.19666732 ,   4.19666732 ,   67.1786560
0000000343,   1.00000000 ,   9.00000000 ,   2.00000000 ,   4.19693051 ,   4.19693051 ,   66.7423486
0000000344,   2.00000000 ,   9.00000000 ,   2.00000000 ,   4.19715954 ,   4.19715954 ,   66.5531987
0000000345,   3.00000000 ,   9.00000000 ,   2.00000000 ,   4.19728538 ,   4.19728538 ,   66.4927279
0000000346,   4.00000000 ,   9.00000000 ,   2.00000000 ,   4.19734282 ,   4.19734282 ,   66.4753837
0000000347,   5.00000000 ,   9.00000000 ,   2.00000000 ,   4.19735910 ,   4.19735910 ,   66.4717654
0000000348,   6.00000000 ,   9.00000000 ,   2.00000000 ,   4.19734282 ,   4.19734282 ,   66.4753837
0000000349,   7.00000000 ,   9.00000000 ,   2.00000000 ,   4.19728538 ,   4.19728538 ,   66.4927279
0000000350,   8.00000000 ,   9.00000000 ,   2.00000000 ,   4.19715954 ,   4.19715954 ,   66.5531987
0000000351,   9.00000000 ,   9.00000000 ,   2.00000000 ,   4.19693051 ,   4.19693051 ,   66.7423486
0000000352,   10.0000000 ,   9.00000000 ,   2.00000000 ,   4.19666732 ,   4.19666732 ,   67.1786560
0000000353,   0.00000000 ,   10.0000000 ,   2.00000000 ,   4.00000000 ,   4.00000000 ,   69.9734981
0000000354,   1.00000000 ,   10.0000000 ,   2.00000000 ,   4.00000000 ,   4.00000000 ,   67.3535984
0000000355,   2.00000000 ,   10.0000000 ,   2.00000000 ,   4.00000000 ,   4.00000000 ,   66.8310740
0000000356,   3.00000000 ,   10.0000000 ,   2.00000000 ,   4.00000000 ,   4.00000000 ,   66.7148328
0000000357,   4.00000000 ,   10.0000000 ,   2.00000000 ,   4.00000000 ,   4.00000000 ,   66.6871636
0000000358,   5.00000000 ,   10.0000000 ,   2.00000000 ,   4.00000000 ,   4.00000000 ,   66.6818600
0000000359,   6.00000000 ,   10.0000000 ,   2.00000000 ,   4.00000000 ,   4.00000000 ,   66.6871636
0000000360,   7.00000000 ,   10.0000000 ,   2.00000000 ,   4.00000000 ,   4.00000000 ,   66.7148328
0000000361,   8.00000000 ,   10.0000000 ,   2.00000000 ,   4.00000000 ,   4.00000000 ,   66.8310740
0000000362,   9.00000000 ,   10.0000000 ,   2.00000000 ,   4.00000000 ,   4.00000000 ,   67.3535984
0000000363,   10.0000000 ,   10.0000000 ,   2.00000000 ,   4.00000000 ,   4.00000000 ,   69.9734981
0000000364,   0.00000000 ,   0.00000000 ,   3.00000000 ,   6.00000000 ,   6.00000000 ,   61.1341283
0000000365,   1.00000000 ,   0.00000000 ,   3.00000000 ,   6.00000000 ,   6.00000000 ,   61.1341293
0000000366,   2.00000000 ,   0.00000000 ,   3.00000000 ,   6.00000000 ,   6.00000000 ,   61.1341322
0000000367,   3.00000000 ,   0.00000000 ,   3.00000000 ,   6.00000000 ,   6.00000000 ,   61.1341357
0000000368,   4.00000000 ,   0.00000000 ,   3.00000000 ,   6.00000000 ,   6.00000000 ,   61.1341386
0000000369,   5.00000000 ,   0.00000000 ,   3.00000000 ,   6.00000000 ,   6.00000000 ,   61.1341397
0000000370,   6.00000000 ,   0.00000000 ,   3.00000000 ,   6.00000000 ,   6.00000000 ,   61.1341386
0000000371,   7.00000000 ,   0.00000000 ,   3.00000000 ,   6.00000000 ,   6.00000000 ,   61.1341357
0000000372,   8.00000000 ,   0.00000000 ,   3.00000000 ,   6.00000000 ,   6.00000000 ,   61.1341322
0000000373,   9.00000000 ,   0.00000000 ,   3.00000000 ,   6.00000000 ,   6.00000000 ,   61.1341293
0000000374,   10.0000000 ,   0.00000000 ,   3.00000000 ,   6.00000000 ,   6.00000000 ,   61.1341283
0000000375,   0.00000000 ,   1.00000000 ,   3.00000000 ,   5.79265823 ,   5.79265823 ,   61.7682899
0000000376,   1.00000000 ,   1.00000000 ,   3.00000000 ,   5.79265863 ,   5.79265863 ,   61.7682902
0000000377,   2.00000000 ,   1.00000000 ,   3.00000000 ,   5.79265965 ,   5.79265965 ,   61.7682913
0000000378,   3.00000000 ,   1.00000000 ,   3.00000000 ,   5.79266089 ,   5.79266089 ,   61.7682931
0000000379,   4.00000000 ,   1.00000000 ,   3.00000000 ,   5.79266188 ,   5.79266188 ,   61.7682947
0000000380,   5.00000000 ,   1.00000000 ,   3.00000000 ,   5.79266225 ,   5.79266225 ,   61.7682953
0000000381,   6.00000000 ,   1.00000000 ,   3.00000000 ,   5.79266188 ,   5.79266188 ,   61.7682947
0000000382,   7.00000000 ,   1.00000000 ,   3.00000000 ,   5.79266089 ,   5.79266089 ,   61.7682931
0000000383,   8.00000000 ,   1.00000000 ,   3.00000000 ,   5.79265965 ,   5.79265965 ,   61.7682913
0000000384,   9.00000000 ,   1.00000000 ,   3.00000000 ,   5.79265863 ,   5.79265863 ,   61.7682902
0000000385,   10.0000000 ,   1.00000000 ,   3.00000000 ,   5.79265823 ,   5.79265823 ,   61.7682899
0000000386,   0.00000000 ,   2.00000000 ,   3.00000000 ,   5.58817231 ,   5.58817231 ,   62.2408618
0000000387,   1.00000000 ,   2.00000000 ,   3.00000000 ,   5.58817325 ,   5.58817325 ,   62.2408594
0000000388,   2.00000000 ,   2.00000000 ,   3.00000000 ,   5.58817567 ,   5.58817567 ,   62.2408546
0000000389,   3.00000000 ,   2.00000000 ,   3.00000000 ,   5.58817857 ,   5.58817857 ,   62.2408506
0000000390,   4.00000000 ,   2.00000000 ,   3.00000000 ,   5.58818086 ,   5.58818086 ,   62.2408484
0000000391,   5.00000000 ,   2.00000000 ,   3.00000000 ,   5.58818171 ,   5.58818171 ,   62.2408478
0000000392,   6.00000000 ,   2.00000000 ,   3.00000000 ,   5.58818086 ,   5.58818086 ,   62.2408484
0000000393,   7.00000000 ,   2.00000000 ,   3.00000000 ,   5.58817857 ,   5.58817857 ,   62.2408506
0000000394,   8.00000000 ,   2.00000000 ,   3.00000000 ,   5.58817567 ,   5.58817567 ,   62.2408546
0000000395,   9.00000000 ,   2.00000000 ,   3.00000000 ,   5.58817325 ,   5.58817325 ,   62.2408594
0000000396,   10.0000000 ,   2.00000000 ,   3.00000000 ,   5.58817231 ,   5.58817231 ,   62.2408618
0000000397,   0.00000000 ,   3.00000000 ,   3.00000000 ,   5.38592386 ,   5.38592386 ,   62.5479220
0000000398,   1.00000000 ,   3.00000000 ,   3.00000000 ,   5.38592572 ,   5.38592572 ,   62.5479081
0000000399,   2.00000000 ,   3.00000000 ,   3.00000000 ,   5.38593043 ,   5.38593043 ,   62.5478807
0000000400,   3.00000000 ,   3.00000000 ,   3.00000000 ,   5.38593598 ,   5.38593598 ,   62.5478564
0000000401,   4.00000000 ,   3.00000000 ,   3.00000000 ,   5.38594030 ,   5.38594030 ,   62.5478419
0000000402,   5.00000000 ,   3.00000000 ,   3.00000000 ,   5.38594191 ,   5.38594191 ,   62.5478373
0000000403,   6.00000000 ,   3.00000000 ,   3.00000000 ,   5.38594030 ,   5.38594030 ,   62.5478419
0000000404,   7.00000000 ,   3.00000000 ,   3.00000000 ,   5.38593598 ,   5.38593598 ,   62.5478564
0000000405,   8.00000000 ,   3.00000000 ,   3.00000000 ,   5.38593043 ,   5.38593043 ,   62.5478807
0000000406,   9.00000000 ,   3.00000000 ,   3.00000000 ,   5.38592572 ,   5.38592572 ,   62.5479081
0000000407,   10.0000000 ,   3.00000000 ,   3.00000000 ,   5.38592386 ,   5.38592386 ,   62.5479220
0000000408,   0.00000000 ,   4.00000000 ,   3.00000000 ,   5.18527545 ,   5.18527545 ,   62.7285196
0000000409,   1.00000000 ,   4.00000000 ,   3.00000000 ,   5.18527899 ,   5.18527899 ,   62.7284549
0000000410,   2.00000000 ,   4.00000000 ,   3.00000000 ,   5.18528775 ,   5.18528775 ,   62.7283359
0000000411,   3.00000000 ,   4.00000000 ,   3.00000000 ,   5.18529780 ,   5.18529780 ,   62.7282365
0000000412,   4.00000000 ,   4.00000000 ,   3.00000000 ,   5.18530543 ,   5.18530543 ,   62.7281795
0000000413,   5.00000000 ,   4.00000000 ,   3.00000000 ,   5.18530824 ,   5.18530824 ,   62.7281618
0000000414,   6.00000000 ,   4.00000000 ,   3.00000000 ,   5.18530543 ,   5.18530543 ,   62.7281795
0000000415,   7.00000000 ,   4.00000000 ,   3.00000000 ,   5.18529780 ,   5.18529780 ,   62.7282365
0000000416,   8.00000000 ,   4.00000000 ,   3.00000000 ,   5.18528775 ,   5.18528775 ,   62.7283359
0000000417,   9.00000000 ,   4.00000000 ,   3.00000000 ,   5.18527899 ,   5.18527899 ,   62.7284549
0000000418,   10.0000000 ,   4.00000000 ,   3.00000000 ,   5.18527545 ,   5.18527545 ,   62.7285196
0000000419,   0.00000000 ,   5.00000000 ,   3.00000000 ,   4.98573782 ,   4.98573782 ,   62.8280094
0000000420,   1.00000000 ,   5.00000000 ,   3.00000000 ,   4.98574464 ,   4.98574464 ,   62.8277131
0000000421,   2.00000000 ,   5.00000000 ,   3.00000000 ,   4.98576074 ,   4.98576074 ,   62.8272244
0000000422,   3.00000000 ,   5.00000000 ,   3.00000000 ,   4.98577840 ,   4.98577840 ,   62.8268510
0000000423,   4.00000000 ,   5.00000000 ,   3.00000000 ,   4.98579134 ,   4.98579134 ,   62.8266516
0000000424,   5.00000000 ,   5.00000000 ,   3.00000000 ,   4.98579602 ,   4.98579602 ,   62.8265920
0000000425,   6.00000000 ,   5.00000000 ,   3.00000000 ,   4.98579134 ,   4.98579134 ,   62.8266516
0000000426,   7.00000000 ,   5.00000000 ,   3.00000000 ,   4.98577840 ,   4.98577840 ,   62.8268510
0000000427,   8.00000000 ,   5.00000000 ,   3.00000000 ,   4.98576074 ,   4.98576074 ,   62.8272244
0000000428,   9.00000000 ,   5.00000000 ,   3.00000000 ,   4.98574464 ,   4.98574464 ,   62.8277131
0000000429,   10.0000000 ,   5.00000000 ,   3.00000000 ,   4.98573782 ,   4.98573782 ,   62.8280094
0000000430,   0.00000000 ,   6.00000000 ,   3.00000000 ,   4.78699668 ,   4.78699668 ,   62.8856474
0000000431,   1.00000000 ,   6.00000000 ,   3.00000000 ,   4.78701011 ,   4.78701011 ,   62.8842814
0000000432,   2.00000000 ,   6.00000000 ,   3.00000000 ,   4.78703943 ,   4.78703943 ,   62.8823353
0000000433,   3.00000000 ,   6.00000000 ,   3.00000000 ,   4.78706942 ,   4.78706942 ,   62.8810052
0000000434,   4.00000000 ,   6.00000000 ,   3.00000000 ,   4.78709028 ,   4.78709028 ,   62.8803536
0000000435,   5.00000000 ,   6.00000000 ,   3.00000000 ,   4.78709762 ,   4.78709762 ,   62.8801686
0000000436,   6.00000000 ,   6.00000000 ,   3.00000000 ,   4.78709028 ,   4.78709028 ,   62.8803536
0000000437,   7.00000000 ,   6.00000000 ,   3.00000000 ,   4.78706942 ,   4.78706942 ,   62.8810052
0000000438,   8.00000000 ,   6.00000000 ,   3.00000000 ,   4.78703942 ,   4.78703942 ,   62.8823353
0000000439,   9.00000000 ,   6.00000000 ,   3.00000000 ,   4.78701011 ,   4.78701011 ,   62.8842814
0000000440,   10.0000000 ,   6.00000000 ,   3.00000000 ,   4.78699668 ,   4.78699668 ,   62.8856474
0000000441,   0.00000000 ,   7.00000000 ,   3.00000000 ,   4.58889148 ,   4.58889148 ,   62.9424101
0000000442,   1.00000000 ,   7.00000000 ,   3.00000000 ,   4.58891852 ,   4.58891852 ,   62.9360959
0000000443,   2.00000000 ,   7.00000000 ,   3.00000000 ,   4.58897037 ,   4.58897037 ,   62.9286543
0000000444,   3.00000000 ,   7.00000000 ,   3.00000000 ,   4.58901826 ,   4.58901826 ,   62.9242104
0000000445,   4.00000000 ,   7.00000000 ,   3.00000000 ,   4.58904920 ,   4.58904920 ,   62.9222448
0000000446,   5.00000000 ,   7.00000000 ,   3.00000000 ,   4.58905966 ,   4.58905966 ,   62.9217192
0000000447,   6.00000000 ,   7.00000000 ,   3.00000000 ,   4.58904920 ,   4.58904920 ,   62.9222448
0000000448,   7.00000000 ,   7.00000000 ,   3.00000000 ,   4.58901826 ,   4.58901826 ,   62.9242104
0000000449,   8.00000000 ,   7.00000000 ,   3.00000000 ,   4.58897037 ,   4.58897037 ,   62.9286543
0000000450,   9.00000000 ,   7.00000000 ,   3.00000000 ,   4.58891852 ,   4.58891852 ,   62.9360959
0000000451,   10.0000000 ,   7.00000000 ,   3.00000000 ,   4.58889148 ,   4.58889148 ,   62.9424101
0000000452,   0.00000000 ,   8.00000000 ,   3.00000000 ,   4.39141164 ,   4.39141164 ,   63.0781292
0000000453,   1.00000000 ,   8.00000000 ,   3.00000000 ,   4.39146507 ,   4.39146507 ,   63.0493811
0000000454,   2.00000000 ,   8.00000000 ,   3.00000000 ,   4.39154895 ,   4.39154895 ,   63.0227999
0000000455,   3.00000000 ,   8.00000000 ,   3.00000000 ,   4.39161605 ,   4.39161605 ,   63.0092883
0000000456,   4.00000000 ,   8.00000000 ,   3.00000000 ,   4.39165526 ,   4.39165526 ,   63.0039695
0000000457,   5.00000000 ,   8.00000000 ,   3.00000000 ,   4.39166785 ,   4.39166785 ,   63.0026400
0000000458,   6.00000000 ,   8.00000000 ,   3.00000000 ,   4.39165526 ,   4.39165526 ,   63.0039695
0000000459,   7.00000000 ,   8.00000000 ,   3.00000000 ,   4.39161605 ,   4.39161605 ,   63.0092883
0000000460,   8.00000000 ,   8.00000000 ,   3.00000000 ,   4.39154895 ,   4.39154895 ,   63.0227999
0000000461,   9.00000000 ,   8.00000000 ,   3.00000000 ,   4.39146507 ,   4.39146507 ,   63.0493811
0000000462,   10.0000000 ,   8.00000000 ,   3.00000000 ,   4.39141164 ,   4.39141164 ,   63.0781292
0000000463,   0.00000000 ,   9.00000000 ,   3.00000000 ,   4.19479560 ,   4.19479560 ,   63.5374382
0000000464,   1.00000000 ,   9.00000000 ,   3.00000000 ,   4.19488209 ,   4.19488209 ,   63.4139441
0000000465,   2.00000000 ,   9.00000000 ,   3.00000000 ,   4.19498400 ,   4.19498400 ,   63.3299074
0000000466,   3.00000000 ,   9.00000000 ,   3.00000000 ,   4.19505136 ,   4.19505136 ,   63.2944200
0000000467,   4.00000000 ,   9.00000000 ,   3.00000000 ,   4.19508595 ,   4.19508595 ,   63.2820755
0000000468,   5.00000000 ,   9.00000000 ,   3.00000000 ,   4.19509635 ,   4.19509635 ,   63.2791940
0000000469,   6.00000000 ,   9.00000000 ,   3.00000000 ,   4.19508595 ,   4.19508595 ,   63.2820755
0000000470,   7.00000000 ,   9.00000000 ,   3.00000000 ,   4.19505136 ,   4.19505136 ,   63.2944200
0000000471,   8.00000000 ,   9.00000000 ,   3.00000000 ,   4.19498400 ,   4.19498400 ,   63.3299074
0000000472,   9.00000000 ,   9.00000000 ,   3.00000000 ,   4.19488209 ,   4.19488209 ,   63.4139441
0000000473,   10.0000000 ,   9.00000000 ,   3.00000000 ,   4.19479560 ,   4.19479560 ,   63.5374382
0000000474,   0.00000000 ,   10.0000000 ,   3.00000000 ,   4.00000000 ,   4.00000000 ,   65.1628443
0000000475,   1.00000000 ,   10.0000000 ,   3.00000000 ,   4.00000000 ,   4.00000000 ,   64.7201071
0000000476,   2.00000000 ,   10.0000000 ,   3.00000000 ,   4.00000000 ,   4.00000000 ,   64.5104807
0000000477,   3.00000000 ,   10.0000000 ,   3.00000000 ,   4.00000000 ,   4.00000000 ,   64.4361956
0000000478,   4.00000000 ,   10.0000000 ,   3.00000000 ,   4.00000000 ,   4.00000000 ,   64.4126910
0000000479,   5.00000000 ,   10.0000000 ,   3.00000000 ,   4.00000000 ,   4.00000000 ,   64.4074495
0000000480,   6.00000000 ,   10.0000000 ,   3.00000000 ,   4.00000000 ,   4.00000000 ,   64.4126910
0000000481,   7.00000000 ,   10.0000000 ,   3.00000000 ,   4.00000000 ,   4.00000000 ,   64.4361956
0000000482,   8.00000000 ,   10.0000000 ,   3.00000000 ,   4.00000000 ,   4.00000000 ,   64.5104807
0000000483,   9.00000000 ,   10.0000000 ,   3.00000000 ,   4.00000000 ,   4.00000000 ,   64.7201071
0000000484,   10.0000000 ,   10.0000000 ,   3.00000000 ,   4.00000000 ,   4.00000000 ,   65.1628443
0000000485,   0.00000000 ,   0.00000000 ,   4.00000000 ,   6.00000000 ,   6.00000000 ,   60.6368685
0000000486,   1.00000000 ,   0.00000000 ,   4.00000000 ,   6.00000000 ,   6.00000000 ,   60.6368685
0000000487,   2.00000000 ,   0.00000000 ,   4.00000000 ,   6.00000000 ,   6.00000000 ,   60.6368686
0000000488,   3.00000000 ,   0.00000000 ,   4.00000000 ,   6.00000000 ,   6.00000000 ,   60.6368689
0000000489,   4.00000000 ,   0.00000000 ,   4.00000000 ,   6.00000000 ,   6.00000000 ,   60.6368691
0000000490,   5.00000000 ,   0.00000000 ,   4.00000000 ,   6.00000000 ,   6.00000000 ,   60.6368693
0000000491,   6.00000000 ,   0.00000000 ,   4.00000000 ,   6.00000000 ,   6.00000000 ,   60.6368691
0000000492,   7.00000000 ,   0.00000000 ,   4.00000000 ,   6.00000000 ,   6.00000000 ,   60.6368689
0000000493,   8.00000000 ,   0.00000000 ,   4.00000000 ,   6.00000000 ,   6.00000000 ,   60.6368686
0000000494,   9.00000000 ,   0.00000000 ,   4.00000000 ,   6.00000000 ,   6.00000000 ,   60.6368685
0000000495,   10.0000000 ,   0.00000000 ,   4.00000000 ,   6.00000000 ,   6.00000000 ,   60.6368685
0000000496,   0.00000000 ,   1.00000000 ,   4.00000000 ,   5.99154961 ,   5.99154961 ,   60.7843768
0000000497,   1.00000000 ,   1.00000000 ,   4.00000000 ,   5.99154922 ,   5.99154922 ,   60.7843763
0000000498,   2.00000000 ,   1.00000000 ,   4.00000000 ,   5.99154837 ,   5.99154837 ,   60.7843752
0000000499,   3.00000000 ,   1.00000000 ,   4.00000000 ,   5.99154757 ,   5.99154757 ,   60.7843743
0000000500,   4.00000000 ,   1.00000000 ,   4.00000000 ,   5.99154710 ,   5.99154710 ,   60.7843737
0000000501,   5.00000000 ,   1.00000000 ,   4.00000000 ,   5.99154695 ,   5.99154695 ,   60.7843736
0000000502,   6.00000000 ,   1.00000000 ,   4.00000000 ,   5.99154710 ,   5.99154710 ,   60.7843737
0000000503,   7.00000000 ,   1.00000000 ,   4.00000000 ,   5.99154757 ,   5.99154757 ,   60.7843743
0000000504,   8.00000000 ,   1.00000000 ,   4.00000000 ,   5.99154837 ,   5.99154837 ,   60.7843752
0000000505,   9.00000000 ,   1.00000000 ,   4.00000000 ,   5.99154922 ,   5.99154922 ,   60.7843763
0000000506,   10.0000000 ,   1.00000000 ,   4.00000000 ,   5.99154961 ,   5.99154961 ,   60.7843768
0000000507,   0.00000000 ,   2.00000000 ,   4.00000000 ,   5.87506782 ,   5.87506782 ,   60.9469520
0000000508,   1.00000000 ,   2.00000000 ,   4.00000000 ,   5.87506572 ,   5.87506572 ,   60.9469491
0000000509,   2.00000000 ,   2.00000000 ,   4.00000000 ,   5.87506105 ,   5.87506105 ,   60.9469428
0000000510,   3.00000000 ,   2.00000000 ,   4.00000000 ,   5.87505646 ,   5.87505646 ,   60.9469366
0000000511,   4.00000000 ,   2.00000000 ,   4.00000000 ,   5.87505348 ,   5.87505348 ,   60.9469326
0000000512,   5.00000000 ,   2.00000000 ,   4.00000000 ,   5.87505249 ,   5.87505249 ,   60.9469313
0000000513,   6.00000000 ,   2.00000000 ,   4.00000000 ,   5.87505348 ,   5.87505348 ,   60.9469326
0000000514,   7.00000000 ,   2.00000000 ,   4.00000000 ,   5.87505646 ,   5.87505646 ,   60.9469366
0000000515,   8.00000000 ,   2.00000000 ,   4.00000000 ,   5.87506105 ,   5.87506105 ,   60.9469428
0000000516,   9.00000000 ,   2.00000000 ,   4.00000000 ,   5.87506572 ,   5.87506572 ,   60.9469491
0000000517,   10.0000000 ,   2.00000000 ,   4.00000000 ,   5.87506782 ,   5.87506782 ,   60.9469520
0000000518,   0.00000000 ,   3.00000000 ,   4.00000000 ,   5.75226540 ,   5.75226540 ,   61.0602750
0000000519,   1.00000000 ,   3.00000000 ,   4.00000000 ,   5.75225665 ,   5.75225665 ,   61.0602629
0000000520,   2.00000000 ,   3.00000000 ,   4.00000000 ,   5.75223757 ,   5.75223757 ,   61.0602372
0000000521,   3.00000000 ,   3.00000000 ,   4.00000000 ,   5.75221905 ,   5.75221905 ,   61.0602127
0000000522,   4.00000000 ,   3.00000000 ,   4.00000000 ,   5.75220711 ,   5.75220711 ,   61.0601971
0000000523,   5.00000000 ,   3.00000000 ,   4.00000000 ,   5.75220313 ,   5.75220313 ,   61.0601919
0000000524,   6.00000000 ,   3.00000000 ,   4.00000000 ,   5.75220711 ,   5.75220711 ,   61.0601971
0000000525,   7.00000000 ,   3.00000000 ,   4.00000000 ,   5.75221905 ,   5.75221905 ,   61.0602127
0000000526,   8.00000000 ,   3.00000000 ,   4.00000000 ,   5.75223757 ,   5.75223757 ,   61.0602372
0000000527,   9.00000000 ,   3.00000000 ,   4.00000000 ,   5.75225665 ,   5.75225665 ,   61.0602629
0000000528,   10.0000000 ,   3.00000000 ,   4.00000000 ,   5.75226540 ,   5.75226540 ,   61.0602750
0000000529,   0.00000000 ,   4.00000000 ,   4.00000000 ,   5.62054690 ,   5.62054690 ,   61.1238576
0000000530,   1.00000000 ,   4.00000000 ,   4.00000000 ,   5.62051381 ,   5.62051381 ,   61.1238092
0000000531,   2.00000000 ,   4.00000000 ,   4.00000000 ,   5.62044445 ,   5.62044445 ,   61.1237123
0000000532,   3.00000000 ,   4.00000000 ,   4.00000000 ,   5.62037959 ,   5.62037959 ,   61.1236252
0000000533,   4.00000000 ,   4.00000000 ,   4.00000000 ,   5.62033897 ,   5.62033897 ,   61.1235720
0000000534,   5.00000000 ,   4.00000000 ,   4.00000000 ,   5.62032568 ,   5.62032568 ,   61.1235549
0000000535,   6.00000000 ,   4.00000000 ,   4.00000000 ,   5.62033897 ,   5.62033897 ,   61.1235720
0000000536,   7.00000000 ,   4.00000000 ,   4.00000000 ,   5.62037959 ,   5.62037959 ,   61.1236252
0000000537,   8.00000000 ,   4.00000000 ,   4.00000000 ,   5.62044445 ,   5.62044445 ,   61.1237123
0000000538,   9.00000000 ,   4.00000000 ,   4.00000000 ,   5.62051381 ,   5.62051381 ,   61.1238092
0000000539,   10.0000000 ,   4.00000000 ,   4.00000000 ,   5.62054690 ,   5.62054690 ,   61.1238576
0000000540,   0.00000000 ,   5.00000000 ,   4.00000000 ,   5.47732366 ,   5.47732366 ,   61.1533279
0000000541,   1.00000000 ,   5.00000000 ,   4.00000000 ,   5.47720523 ,   5.47720523 ,   61.1531373
0000000542,   2.00000000 ,   5.00000000 ,   4.00000000 ,   5.47697077 ,   5.47697077 ,   61.1527864
0000000543,   3.00000000 ,   5.00000000 ,   4.00000000 ,   5.47676287 ,   5.47676287 ,   61.1524930
0000000544,   4.00000000 ,   5.00000000 ,   4.00000000 ,   5.47663810 ,   5.47663810 ,   61.1523245
0000000545,   5.00000000 ,   5.00000000 ,   4.00000000 ,   5.47659826 ,   5.47659826 ,   61.1522720
0000000546,   6.00000000 ,   5.00000000 ,   4.00000000 ,   5.47663810 ,   5.47663810 ,   61.1523245
0000000547,   7.00000000 ,   5.00000000 ,   4.00000000 ,   5.47676287 ,   5.47676287 ,   61.1524930
0000000548,   8.00000000 ,   5.00000000 ,   4.00000000 ,   5.47697077 ,   5.47697077 ,   61.1527864
0000000549,   9.00000000 ,   5.00000000 ,   4.00000000 ,   5.47720523 ,   5.47720523 ,   61.1531373
0000000550,   10.0000000 ,   5.00000000 ,   4.00000000 ,   5.47732366 ,   5.47732366 ,   61.1533279
0000000551,   0.00000000 ,   6.00000000 ,   4.00000000 ,   5.32629302 ,   5.32629302 ,   61.1667291
0000000552,   1.00000000 ,   6.00000000 ,   4.00000000 ,   5.32589068 ,   5.32589068 ,   61.1659895
0000000553,   2.00000000 ,   6.00000000 ,   4.00000000 ,   5.32515252 ,   5.32515252 ,   61.1647684
0000000554,   3.00000000 ,   6.00000000 ,   4.00000000 ,   5.32453983 ,   5.32453983 ,   61.1638343
0000000555,   4.00000000 ,   6.00000000 ,   4.00000000 ,   5.32419119 ,   5.32419119 ,   61.1633346
0000000556,   5.00000000 ,   6.00000000 ,   4.00000000 ,   5.32408325 ,   5.32408325 ,   61.1631852
0000000557,   6.00000000 ,   6.00000000 ,   4.00000000 ,   5.32419119 ,   5.32419119 ,   61.1633346
0000000558,   7.00000000 ,   6.00000000 ,   4.00000000 ,   5.32453983 ,   5.32453983 ,   61.1638343
0000000559,   8.00000000 ,   6.00000000 ,   4.00000000 ,   5.32515252 ,   5.32515252 ,   61.1647684
0000000560,   9.00000000 ,   6.00000000 ,   4.00000000 ,   5.32589068 ,   5.32589068 ,   61.1659895
0000000561,   10.0000000 ,   6.00000000 ,   4.00000000 ,   5.32629302 ,   5.32629302 ,   61.1667291
0000000562,   0.00000000 ,   7.00000000 ,   4.00000000 ,   5.17145301 ,   5.17145301 ,   61.1857296
0000000563,   1.00000000 ,   7.00000000 ,   4.00000000 ,   5.17018082 ,   5.17018082 ,   61.1829345
0000000564,   2.00000000 ,   7.00000000 ,   4.00000000 ,   5.16806385 ,   5.16806385 ,   61.1789242
0000000565,   3.00000000 ,   7.00000000 ,   4.00000000 ,   5.16643996 ,   5.16643996 ,   61.1761650
0000000566,   4.00000000 ,   7.00000000 ,   4.00000000 ,   5.16557160 ,   5.16557160 ,   61.1748054
0000000567,   5.00000000 ,   7.00000000 ,   4.00000000 ,   5.16531233 ,   5.16531233 ,   61.1744179
0000000568,   6.00000000 ,   7.00000000 ,   4.00000000 ,   5.16557160 ,   5.16557160 ,   61.1748054
0000000569,   7.00000000 ,   7.00000000 ,   4.00000000 ,   5.16643996 ,   5.16643996 ,   61.1761650
0000000570,   8.00000000 ,   7.00000000 ,   4.00000000 ,   5.16806385 ,   5.16806385 ,   61.1789242
0000000571,   9.00000000 ,   7.00000000 ,   4.00000000 ,   5.17018082 ,   5.17018082 ,   61.1829345
0000000572,   10.0000000 ,   7.00000000 ,   4.00000000 ,   5.17145301 ,   5.17145301 ,   61.1857296
0000000573,   0.00000000 ,   8.00000000 ,   4.00000000 ,   5.00418239 ,   5.00418239 ,   61.2470279
0000000574,   1.00000000 ,   8.00000000 ,   4.00000000 ,   5.00064054 ,   5.00064054 ,   61.2370276
0000000575,   2.00000000 ,   8.00000000 ,   4.00000000 ,   4.99542230 ,   4.99542230 ,   61.2250151
0000000576,   3.00000000 ,   8.00000000 ,   4.00000000 ,   4.99176696 ,   4.99176696 ,   61.2177137
0000000577,   4.00000000 ,   8.00000000 ,   4.00000000 ,   4.98994312 ,   4.98994312 ,   61.2144324
0000000578,   5.00000000 ,   8.00000000 ,   4.00000000 ,   4.98941995 ,   4.98941995 ,   61.2135459
0000000579,   6.00000000 ,   8.00000000 ,   4.00000000 ,   4.98994312 ,   4.98994312 ,   61.2144324
0000000580,   7.00000000 ,   8.00000000 ,   4.00000000 ,   4.99176696 ,   4.99176696 ,   61.2177137
0000000581,   8.00000000 ,   8.00000000 ,   4.00000000 ,   4.99542230 ,   4.99542230 ,   61.2250151
0000000582,   9.00000000 ,   8.00000000 ,   4.00000000 ,   5.00064054 ,   5.00064054 ,   61.2370276
0000000583,   10.0000000 ,   8.00000000 ,   4.00000000 ,   5.00418239 ,   5.00418239 ,   61.2470279
0000000584,   0.00000000 ,   9.00000000 ,   4.00000000 ,   4.74823195 ,   4.74823195 ,   61.4169319
0000000585,   1.00000000 ,   9.00000000 ,   4.00000000 ,   4.74096266 ,   4.74096266 ,   61.3851619
0000000586,   2.00000000 ,   9.00000000 ,   4.00000000 ,   4.73171241 ,   4.73171241 ,   61.3544618
0000000587,   3.00000000 ,   9.00000000 ,   4.00000000 ,   4.72584815 ,   4.72584815 ,   61.3382146
0000000588,   4.00000000 ,   9.00000000 ,   4.00000000 ,   4.72312647 ,   4.72312647 ,   61.3315845
0000000589,   5.00000000 ,   9.00000000 ,   4.00000000 ,   4.72237710 ,   4.72237710 ,   61.3298875
0000000590,   6.00000000 ,   9.00000000 ,   4.00000000 ,   4.72312647 ,   4.72312647 ,   61.3315845
0000000591,   7.00000000 ,   9.00000000 ,   4.00000000 ,   4.72584815 ,   4.72584815 ,   61.3382146
0000000592,   8.00000000 ,   9.00000000 ,   4.00000000 ,   4.73171241 ,   4.73171241 ,   61.3544618
0000000593,   9.00000000 ,   9.00000000 ,   4.00000000 ,   4.74096266 ,   4.74096266 ,   61.3851619
0000000594,   10.0000000 ,   9.00000000 ,   4.00000000 ,   4.74823195 ,   4.74823195 ,   61.4169319
0000000595,   0.00000000 ,   10.0000000 ,   4.00000000 ,   4.00000000 ,   4.00000000 ,   61.7257865
0000000596,   1.00000000 ,   10.0000000 ,   4.00000000 ,   4.00000000 ,   4.00000000 ,   61.6508923
0000000597,   2.00000000 ,   10.0000000 ,   4.00000000 ,   4.00000000 ,   4.00000000 ,   61.5940495
0000000598,   3.00000000 ,   10.0000000 ,   4.00000000 ,   4.00000000 ,   4.00000000 ,   61.5676402
0000000599,   4.00000000 ,   10.0000000 ,   4.00000000 ,   4.00000000 ,   4.00000000 ,   61.5576813
0000000600,   5.00000000 ,   10.0000000 ,   4.00000000 ,   4.00000000 ,   4.00000000 ,   61.5552342
0000000601,   6.00000000 ,   10.0000000 ,   4.00000000 ,   4.00000000 ,   4.00000000 ,   61.5576813
0000000602,   7.00000000 ,   10.0000000 ,   4.00000000 ,   4.00000000 ,   4.00000000 ,   61.5676402
0000000603,   8.00000000 ,   10.0000000 ,   4.00000000 ,   4.00000000 ,   4.00000000 ,   61.5940495
0000000604,   9.00000000 ,   10.0000000 ,   4.00000000 ,   4.00000000 ,   4.00000000 ,   61.6508923
0000000605,   10.0000000 ,   10.0000000 ,   4.00000000 ,   4.00000000 ,   4.00000000 ,   61.7257865
0000000606,   0.00000000 ,   0.00000000 ,   5.00000000 ,   6.00000000 ,   6.00000000 ,   60.2750132
0000000607,   1.00000000 ,   0.00000000 ,   5.00000000 ,   6.00000000 ,   6.00000000 ,   60.2750131
0000000608,   2.00000000 ,   0.00000000 ,   5.00000000 ,   6.00000000 ,   6.00000000 ,   60.2750126
0000000609,   3.00000000 ,   0.00000000 ,   5.00000000 ,   6.00000000 ,   6.00000000 ,   60.2750122
0000000610,   4.00000000 ,   0.00000000 ,   5.00000000 ,   6.00000000 ,   6.00000000 ,   60.2750119
0000000611,   5.00000000 ,   0.00000000 ,   5.00000000 ,   6.00000000 ,   6.00000000 ,   60.2750118
0000000612,   6.00000000 ,   0.00000000 ,   5.00000000 ,   6.00000000 ,   6.00000000 ,   60.2750119
0000000613,   7.00000000 ,   0.00000000 ,   5.00000000 ,   6.00000000 ,   6.00000000 ,   60.2750122
0000000614,   8.00000000 ,   0.00000000 ,   5.00000000 ,   6.00000000 ,   6.00000000 ,   60.2750126
0000000615,   9.00000000 ,   0.00000000 ,   5.00000000 ,   6.00000000 ,   6.00000000 ,   60.2750131
0000000616,   10.0000000 ,   0.00000000 ,   5.00000000 ,   6.00000000 ,   6.00000000 ,   60.2750132
0000000617,   0.00000000 ,   1.00000000 ,   5.00000000 ,   5.85909885 ,   5.85909885 ,   60.3054256
0000000618,   1.00000000 ,   1.00000000 ,   5.00000000 ,   5.85909817 ,   5.85909817 ,   60.3054251
0000000619,   2.00000000 ,   1.00000000 ,   5.00000000 ,   5.85909656 ,   5.85909656 ,   60.3054239
0000000620,   3.00000000 ,   1.00000000 ,   5.00000000 ,   5.85909485 ,   5.85909485 ,   60.3054227
0000000621,   4.00000000 ,   1.00000000 ,   5.00000000 ,   5.85909366 ,   5.85909366 ,   60.3054219
0000000622,   5.00000000 ,   1.00000000 ,   5.00000000 ,   5.85909324 ,   5.85909324 ,   60.3054216
0000000623,   6.00000000 ,   1.00000000 ,   5.00000000 ,   5.85909366 ,   5.85909366 ,   60.3054219
0000000624,   7.00000000 ,   1.00000000 ,   5.00000000 ,   5.85909485 ,   5.85909485 ,   60.3054227
0000000625,   8.00000000 ,   1.00000000 ,   5.00000000 ,   5.85909656 ,   5.85909656 ,   60.3054239
0000000626,   9.00000000 ,   1.00000000 ,   5.00000000 ,   5.85909817 ,   5.85909817 ,   60.3054251
0000000627,   10.0000000 ,   1.00000000 ,   5.00000000 ,   5.85909885 ,   5.85909885 ,   60.3054256
0000000628,   0.00000000 ,   2.00000000 ,   5.00000000 ,   5.69623444 ,   5.69623444 ,   60.3402831
0000000629,   1.00000000 ,   2.00000000 ,   5.00000000 ,   5.69623173 ,   5.69623173 ,   60.3402810
0000000630,   2.00000000 ,   2.00000000 ,   5.00000000 ,   5.69622543 ,   5.69622543 ,   60.3402764
0000000631,   3.00000000 ,   2.00000000 ,   5.00000000 ,   5.69621882 ,   5.69621882 ,   60.3402716
0000000632,   4.00000000 ,   2.00000000 ,   5.00000000 ,   5.69621425 ,   5.69621425 ,   60.3402684
0000000633,   5.00000000 ,   2.00000000 ,   5.00000000 ,   5.69621266 ,   5.69621266 ,   60.3402673
0000000634,   6.00000000 ,   2.00000000 ,   5.00000000 ,   5.69621425 ,   5.69621425 ,   60.3402684
0000000635,   7.00000000 ,   2.00000000 ,   5.00000000 ,   5.69621882 ,   5.69621882 ,   60.3402716
0000000636,   8.00000000 ,   2.00000000 ,   5.00000000 ,   5.69622543 ,   5.69622543 ,   60.3402764
0000000637,   9.00000000 ,   2.00000000 ,   5.00000000 ,   5.69623173 ,   5.69623173 ,   60.3402810
0000000638,   10.0000000 ,   2.00000000 ,   5.00000000 ,   5.69623444 ,   5.69623444 ,   60.3402831
0000000639,   0.00000000 ,   3.00000000 ,   5.00000000 ,   5.56439934 ,   5.56439934 ,   60.3539945
0000000640,   1.00000000 ,   3.00000000 ,   5.00000000 ,   5.56438969 ,   5.56438969 ,   60.3539870
0000000641,   2.00000000 ,   3.00000000 ,   5.00000000 ,   5.56436776 ,   5.56436776 ,   60.3539704
0000000642,   3.00000000 ,   3.00000000 ,   5.00000000 ,   5.56434542 ,   5.56434542 ,   60.3539537
0000000643,   4.00000000 ,   3.00000000 ,   5.00000000 ,   5.56433032 ,   5.56433032 ,   60.3539427
0000000644,   5.00000000 ,   3.00000000 ,   5.00000000 ,   5.56432514 ,   5.56432514 ,   60.3539389
0000000645,   6.00000000 ,   3.00000000 ,   5.00000000 ,   5.56433032 ,   5.56433032 ,   60.3539427
0000000646,   7.00000000 ,   3.00000000 ,   5.00000000 ,   5.56434542 ,   5.56434542 ,   60.3539537
0000000647,   8.00000000 ,   3.00000000 ,   5.00000000 ,   5.56436776 ,   5.56436776 ,   60.3539704
0000000648,   9.00000000 ,   3.00000000 ,   5.00000000 ,   5.56438969 ,   5.56438969 ,   60.3539870
0000000649,   10.0000000 ,   3.00000000 ,   5.00000000 ,   5.56439934 ,   5.56439934 ,   60.3539945
0000000650,   0.00000000 ,   4.00000000 ,   5.00000000 ,   5.43860298 ,   5.43860298 ,   60.3442078
0000000651,   1.00000000 ,   4.00000000 ,   5.00000000 ,   5.43857036 ,   5.43857036 ,   60.3441809
0000000652,   2.00000000 ,   4.00000000 ,   5.00000000 ,   5.43849878 ,   5.43849878 ,   60.3441237
0000000653,   3.00000000 ,   4.00000000 ,   5.00000000 ,   5.43842852 ,   5.43842852 ,   60.3440694
0000000654,   4.00000000 ,   4.00000000 ,   5.00000000 ,   5.43838255 ,   5.43838255 ,   60.3440347
0000000655,   5.00000000 ,   4.00000000 ,   5.00000000 ,   5.43836709 ,   5.43836709 ,   60.3440232
0000000656,   6.00000000 ,   4.00000000 ,   5.00000000 ,   5.43838255 ,   5.43838255 ,   60.3440347
0000000657,   7.00000000 ,   4.00000000 ,   5.00000000 ,   5.43842852 ,   5.43842852 ,   60.3440694
0000000658,   8.00000000 ,   4.00000000 ,   5.00000000 ,   5.43849878 ,   5.43849878 ,   60.3441237
0000000659,   9.00000000 ,   4.00000000 ,   5.00000000 ,   5.43857036 ,   5.43857036 ,   60.3441809
0000000660,   10.0000000 ,   4.00000000 ,   5.00000000 ,   5.43860298 ,   5.43860298 ,   60.3442078
0000000661,   0.00000000 ,   5.00000000 ,   5.00000000 ,   5.30575686 ,   5.30575686 ,   60.3176036
0000000662,   1.00000000 ,   5.00000000 ,   5.00000000 ,   5.30565180 ,   5.30565180 ,   60.3175095
0000000663,   2.00000000 ,   5.00000000 ,   5.00000000 ,   5.30543155 ,   5.30543155 ,   60.3173218
0000000664,   3.00000000 ,   5.00000000 ,   5.00000000 ,   5.30522516 ,   5.30522516 ,   60.3171535
0000000665,   4.00000000 ,   5.00000000 ,   5.00000000 ,   5.30509533 ,   5.30509533 ,   60.3170512
0000000666,   5.00000000 ,   5.00000000 ,   5.00000000 ,   5.30505268 ,   5.30505268 ,   60.3170182
0000000667,   6.00000000 ,   5.00000000 ,   5.00000000 ,   5.30509533 ,   5.30509533 ,   60.3170512
0000000668,   7.00000000 ,   5.00000000 ,   5.00000000 ,   5.30522516 ,   5.30522516 ,   60.3171535
0000000669,   8.00000000 ,   5.00000000 ,   5.00000000 ,   5.30543155 ,   5.30543155 ,   60.3173218
0000000670,   9.00000000 ,   5.00000000 ,   5.00000000 ,   5.30565180 ,   5.30565180 ,   60.3175095
0000000671,   10.0000000 ,   5.00000000 ,   5.00000000 ,   5.30575686 ,   5.30575686 ,   60.3176036
0000000672,   0.00000000 ,   6.00000000 ,   5.00000000 ,   5.16489351 ,   5.16489351 ,   60.2834500
0000000673,   1.00000000 ,   6.00000000 ,   5.00000000 ,   5.16457516 ,   5.16457516 ,   60.2831323
0000000674,   2.00000000 ,   6.00000000 ,   5.00000000 ,   5.16394538 ,   5.16394538 ,   60.2825471
0000000675,   3.00000000 ,   6.00000000 ,   5.00000000 ,   5.16338675 ,   5.16338675 ,   60.2820580
0000000676,   4.00000000 ,   6.00000000 ,   5.00000000 ,   5.16305104 ,   5.16305104 ,   60.2817772
0000000677,   5.00000000 ,   6.00000000 ,   5.00000000 ,   5.16294369 ,   5.16294369 ,   60.2816897
0000000678,   6.00000000 ,   6.00000000 ,   5.00000000 ,   5.16305104 ,   5.16305104 ,   60.2817772
0000000679,   7.00000000 ,   6.00000000 ,   5.00000000 ,   5.16338675 ,   5.16338675 ,   60.2820580
0000000680,   8.00000000 ,   6.00000000 ,   5.00000000 ,   5.16394538 ,   5.16394538 ,   60.2825471
0000000681,   9.00000000 ,   6.00000000 ,   5.00000000 ,   5.16457516 ,   5.16457516 ,   60.2831323
0000000682,   10.0000000 ,   6.00000000 ,   5.00000000 ,   5.16489351 ,   5.16489351 ,   60.2834500
0000000683,   0.00000000 ,   7.00000000 ,   5.00000000 ,   5.01503463 ,   5.01503463 ,   60.2529657
0000000684,   1.00000000 ,   7.00000000 ,   5.00000000 ,   5.01415296 ,   5.01415296 ,   60.2519454
0000000685,   2.00000000 ,   7.00000000 ,   5.00000000 ,   5.01253085 ,   5.01253085 ,   60.2502501
0000000686,   3.00000000 ,   7.00000000 ,   5.00000000 ,   5.01118046 ,   5.01118046 ,   60.2489456
0000000687,   4.00000000 ,   7.00000000 ,   5.00000000 ,   5.01040963 ,   5.01040963 ,   60.2482443
0000000688,   5.00000000 ,   7.00000000 ,   5.00000000 ,   5.01017046 ,   5.01017046 ,   60.2480340
0000000689,   6.00000000 ,   7.00000000 ,   5.00000000 ,   5.01040963 ,   5.01040963 ,   60.2482443
0000000690,   7.00000000 ,   7.00000000 ,   5.00000000 ,   5.01118046 ,   5.01118046 ,   60.2489456
0000000691,   8.00000000 ,   7.00000000 ,   5.00000000 ,   5.01253085 ,   5.01253085 ,   60.2502501
0000000692,   9.00000000 ,   7.00000000 ,   5.00000000 ,   5.01415296 ,   5.01415296 ,   60.2519454
0000000693,   10.0000000 ,   7.00000000 ,   5.00000000 ,   5.01503463 ,   5.01503463 ,   60.2529657
0000000694,   0.00000000 ,   8.00000000 ,   5.00000000 ,   4.83757697 ,   4.83757697 ,   60.2416047
0000000695,   1.00000000 ,   8.00000000 ,   5.00000000 ,   4.83548586 ,   4.83548586 ,   60.2385938
0000000696,   2.00000000 ,   8.00000000 ,   5.00000000 ,   4.83196508 ,   4.83196508 ,   60.2341950
0000000697,   3.00000000 ,   8.00000000 ,   5.00000000 ,   4.82923550 ,   4.82923550 ,   60.2311178
0000000698,   4.00000000 ,   8.00000000 ,   5.00000000 ,   4.82776212 ,   4.82776212 ,   60.2295790
0000000699,   5.00000000 ,   8.00000000 ,   5.00000000 ,   4.82731958 ,   4.82731958 ,   60.2291364
0000000700,   6.00000000 ,   8.00000000 ,   5.00000000 ,   4.82776212 ,   4.82776212 ,   60.2295790
0000000701,   7.00000000 ,   8.00000000 ,   5.00000000 ,   4.82923550 ,   4.82923550 ,   60.2311178
0000000702,   8.00000000 ,   8.00000000 ,   5.00000000 ,   4.83196508 ,   4.83196508 ,   60.2341950
0000000703,   9.00000000 ,   8.00000000 ,   5.00000000 ,   4.83548586 ,   4.83548586 ,   60.2385938
0000000704,   10.0000000 ,   8.00000000 ,   5.00000000 ,   4.83757697 ,   4.83757697 ,   60.2416047
0000000705,   0.00000000 ,   9.00000000 ,   5.00000000 ,   4.56014838 ,   4.56014838 ,   60.2673520
0000000706,   1.00000000 ,   9.00000000 ,   5.00000000 ,   4.55664338 ,   4.55664338 ,   60.2597417
0000000707,   2.00000000 ,   9.00000000 ,   5.00000000 ,   4.55132622 ,   4.55132622 ,   60.2502080
0000000708,   3.00000000 ,   9.00000000 ,   5.00000000 ,   4.54750537 ,   4.54750537 ,   60.2441917
0000000709,   4.00000000 ,   9.00000000 ,   5.00000000 ,   4.54555671 ,   4.54555671 ,   60.2413973
0000000710,   5.00000000 ,   9.00000000 ,   5.00000000 ,   4.54499000 ,   4.54499000 ,   60.2406263
0000000711,   6.00000000 ,   9.00000000 ,   5.00000000 ,   4.54555671 ,   4.54555671 ,   60.2413973
0000000712,   7.00000000 ,   9.00000000 ,   5.00000000 ,   4.54750537 ,   4.54750537 ,   60.2441917
0000000713,   8.00000000 ,   9.00000000 ,   5.00000000 ,   4.55132622 ,   4.55132622 ,   60.2502080
0000000714,   9.00000000 ,   9.00000000 ,   5.00000000 ,   4.55664338 ,   4.55664338 ,   60.2597417
0000000715,   10.0000000 ,   9.00000000 ,   5.00000000 ,   4.56014838 ,   4.56014838 ,   60.2673520
0000000716,   0.00000000 ,   10.0000000 ,   5.00000000 ,   4.00000000 ,   4.00000000 ,   60.3198012
0000000717,   1.00000000 ,   10.0000000 ,   5.00000000 ,   4.00000000 ,   4.00000000 ,   60.3060332
0000000718,   2.00000000 ,   10.0000000 ,   5.00000000 ,   4.00000000 ,   4.00000000 ,   60.2912757
0000000719,   3.00000000 ,   10.0000000 ,   5.00000000 ,   4.00000000 ,   4.00000000 ,   60.2827517
0000000720,   4.00000000 ,   10.0000000 ,   5.00000000 ,   4.00000000 ,   4.00000000 ,   60.2790087
0000000721,   5.00000000 ,   10.0000000 ,   5.00000000 ,   4.00000000 ,   4.00000000 ,   60.2780058
0000000722,   6.00000000 ,   10.0000000 ,   5.00000000 ,   4.00000000 ,   4.00000000 ,   60.2790087
0000000723,   7.00000000 ,   10.0000000 ,   5.00000000 ,   4.00000000 ,   4.00000000 ,   60.2827517
0000000724,   8.00000000 ,   10.0000000 ,   5.00000000 ,   4.00000000 ,   4.00000000 ,   60.2912757
0000000725,   9.00000000 ,   10.0000000 ,   5.00000000 ,   4.00000000 ,   4.00000000 ,   60.3060332
0000000726,   10.0000000 ,   10.0000000 ,   5.00000000 ,   4.00000000 ,   4.00000000 ,   60.3198012
0000000727,   0.00000000 ,   0.00000000 ,   6.00000000 ,   6.00000000 ,   6.00000000 ,   60.0805390
0000000728,   1.00000000 ,   0.00000000 ,   6.00000000 ,   6.00000000 ,   6.00000000 ,   60.0805389
0000000729,   2.00000000 ,   0.00000000 ,   6.00000000 ,   6.00000000 ,   6.00000000 ,   60.0805385
0000000730,   3.00000000 ,   0.00000000 ,   6.00000000 ,   6.00000000 ,   6.00000000 ,   60.0805382
0000000731,   4.00000000 ,   0.00000000 ,   6.00000000 ,   6.00000000 ,   6.00000000 ,   60.0805379
0000000732,   5.00000000 ,   0.00000000 ,   6.00000000 ,   6.00000000 ,   6.00000000 ,   60.0805379
0000000733,   6.00000000 ,   0.00000000 ,   6.00000000 ,   6.00000000 ,   6.00000000 ,   60.0805379
0000000734,   7.00000000 ,   0.00000000 ,   6.00000000 ,   6.00000000 ,   6.00000000 ,   60.0805382
0000000735,   8.00000000 ,   0.00000000 ,   6.00000000 ,   6.00000000 ,   6.00000000 ,   60.0805385
0000000736,   9.00000000 ,   0.00000000 ,   6.00000000 ,   6.00000000 ,   6.00000000 ,   60.0805389
0000000737,   10.0000000 ,   0.00000000 ,   6.00000000 ,   6.00000000 ,   6.00000000 ,   60.0805390
0000000738,   0.00000000 ,   1.00000000 ,   6.00000000 ,   5.78950256 ,   5.78950256 ,   60.0717934
0000000739,   1.00000000 ,   1.00000000 ,   6.00000000 ,   5.78950223 ,   5.78950223 ,   60.0717931
0000000740,   2.00000000 ,   1.00000000 ,   6.00000000 ,   5.78950142 ,   5.78950142 ,   60.0717924
0000000741,   3.00000000 ,   1.00000000 ,   6.00000000 ,   5.78950054 ,   5.78950054 ,   60.0717916
0000000742,   4.00000000 ,   1.00000000 ,   6.00000000 ,   5.78949991 ,   5.78949991 ,   60.0717911
0000000743,   5.00000000 ,   1.00000000 ,   6.00000000 ,   5.78949969 ,   5.78949969 ,   60.0717909
0000000744,   6.00000000 ,   1.00000000 ,   6.00000000 ,   5.78949991 ,   5.78949991 ,   60.0717911
0000000745,   7.00000000 ,   1.00000000 ,   6.00000000 ,   5.78950054 ,   5.78950054 ,   60.0717916
0000000746,   8.00000000 ,   1.00000000 ,   6.00000000 ,   5.78950142 ,   5.78950142 ,   60.0717924
0000000747,   9.00000000 ,   1.00000000 ,   6.00000000 ,   5.78950223 ,   5.78950223 ,   60.0717931
0000000748,   10.0000000 ,   1.00000000 ,   6.00000000 ,   5.78950256 ,   5.78950256 ,   60.0717934
0000000749,   0.00000000 ,   2.00000000 ,   6.00000000 ,   5.58651098 ,   5.58651098 ,   60.0384405
0000000750,   1.00000000 ,   2.00000000 ,   6.00000000 ,   5.58650974 ,   5.58650974 ,   60.0384395
0000000751,   2.00000000 ,   2.00000000 ,   6.00000000 ,   5.58650682 ,   5.58650682 ,   60.0384371
0000000752,   3.00000000 ,   2.00000000 ,   6.00000000 ,   5.58650369 ,   5.58650369 ,   60.0384346
0000000753,   4.00000000 ,   2.00000000 ,   6.00000000 ,   5.58650148 ,   5.58650148 ,   60.0384328
0000000754,   5.00000000 ,   2.00000000 ,   6.00000000 ,   5.58650071 ,   5.58650071 ,   60.0384322
0000000755,   6.00000000 ,   2.00000000 ,   6.00000000 ,   5.58650148 ,   5.58650148 ,   60.0384328
0000000756,   7.00000000 ,   2.00000000 ,   6.00000000 ,   5.58650369 ,   5.58650369 ,   60.0384346
0000000757,   8.00000000 ,   2.00000000 ,   6.00000000 ,   5.58650682 ,   5.58650682 ,   60.0384371
0000000758,   9.00000000 ,   2.00000000 ,   6.00000000 ,   5.58650974 ,   5.58650974 ,   60.0384395
0000000759,   10.0000000 ,   2.00000000 ,   6.00000000 ,   5.58651098 ,   5.58651098 ,   60.0384405
0000000760,   0.00000000 ,   3.00000000 ,   6.00000000 ,   5.40218583 ,   5.40218583 ,   59.9767880
0000000761,   1.00000000 ,   3.00000000 ,   6.00000000 ,   5.40218165 ,   5.40218165 ,   59.9767845
0000000762,   2.00000000 ,   3.00000000 ,   6.00000000 ,   5.40217200 ,   5.40217200 ,   59.9767765
0000000763,   3.00000000 ,   3.00000000 ,   6.00000000 ,   5.40216195 ,   5.40216195 ,   59.9767683
0000000764,   4.00000000 ,   3.00000000 ,   6.00000000 ,   5.40215503 ,   5.40215503 ,   59.9767627
0000000765,   5.00000000 ,   3.00000000 ,   6.00000000 ,   5.40215263 ,   5.40215263 ,   59.9767608
0000000766,   6.00000000 ,   3.00000000 ,   6.00000000 ,   5.40215503 ,   5.40215503 ,   59.9767627
0000000767,   7.00000000 ,   3.00000000 ,   6.00000000 ,   5.40216195 ,   5.40216195 ,   59.9767683
0000000768,   8.00000000 ,   3.00000000 ,   6.00000000 ,   5.40217200 ,   5.40217200 ,   59.9767765
0000000769,   9.00000000 ,   3.00000000 ,   6.00000000 ,   5.40218165 ,   5.40218165 ,   59.9767845
0000000770,   10.0000000 ,   3.00000000 ,   6.00000000 ,   5.40218583 ,   5.40218583 ,   59.9767880
0000000771,   0.00000000 ,   4.00000000 ,   6.00000000 ,   5.21908015 ,   5.21908015 ,   59.8904427
0000000772,   1.00000000 ,   4.00000000 ,   6.00000000 ,   5.21906676 ,   5.21906676 ,   59.8904311
0000000773,   2.00000000 ,   4.00000000 ,   6.00000000 ,   5.21903667 ,   5.21903667 ,   59.8904055
0000000774,   3.00000000 ,   4.00000000 ,   6.00000000 ,   5.21900639 ,   5.21900639 ,   59.8903802
0000000775,   4.00000000 ,   4.00000000 ,   6.00000000 ,   5.21898614 ,   5.21898614 ,   59.8903634
0000000776,   5.00000000 ,   4.00000000 ,   6.00000000 ,   5.21897924 ,   5.21897924 ,   59.8903578
0000000777,   6.00000000 ,   4.00000000 ,   6.00000000 ,   5.21898614 ,   5.21898614 ,   59.8903634
0000000778,   7.00000000 ,   4.00000000 ,   6.00000000 ,   5.21900639 ,   5.21900639 ,   59.8903802
0000000779,   8.00000000 ,   4.00000000 ,   6.00000000 ,   5.21903667 ,   5.21903667 ,   59.8904055
0000000780,   9.00000000 ,   4.00000000 ,   6.00000000 ,   5.21906676 ,   5.21906676 ,   59.8904311
0000000781,   10.0000000 ,   4.00000000 ,   6.00000000 ,   5.21908015 ,   5.21908015 ,   59.8904427
0000000782,   0.00000000 ,   5.00000000 ,   6.00000000 ,   5.02950780 ,   5.02950780 ,   59.7867599
0000000783,   1.00000000 ,   5.00000000 ,   6.00000000 ,   5.02946706 ,   5.02946706 ,   59.7867227
0000000784,   2.00000000 ,   5.00000000 ,   6.00000000 ,   5.02937891 ,   5.02937891 ,   59.7866444
0000000785,   3.00000000 ,   5.00000000 ,   6.00000000 ,   5.02929365 ,   5.02929365 ,   59.7865705
0000000786,   4.00000000 ,   5.00000000 ,   6.00000000 ,   5.02923858 ,   5.02923858 ,   59.7865237
0000000787,   5.00000000 ,   5.00000000 ,   6.00000000 ,   5.02922021 ,   5.02922021 ,   59.7865082
0000000788,   6.00000000 ,   5.00000000 ,   6.00000000 ,   5.02923858 ,   5.02923858 ,   59.7865237
0000000789,   7.00000000 ,   5.00000000 ,   6.00000000 ,   5.02929365 ,   5.02929365 ,   59.7865705
0000000790,   8.00000000 ,   5.00000000 ,   6.00000000 ,   5.02937891 ,   5.02937891 ,   59.7866444
0000000791,   9.00000000 ,   5.00000000 ,   6.00000000 ,   5.02946706 ,   5.02946706 ,   59.7867227
0000000792,   10.0000000 ,   5.00000000 ,   6.00000000 ,   5.02950780 ,   5.02950780 ,   59.7867599
0000000793,   0.00000000 ,   6.00000000 ,   6.00000000 ,   4.83309838 ,   4.83309838 ,   59.6741941
0000000794,   1.00000000 ,   6.00000000 ,   6.00000000 ,   4.83298294 ,   4.83298294 ,   59.6740808
0000000795,   2.00000000 ,   6.00000000 ,   6.00000000 ,   4.83274447 ,   4.83274447 ,   59.6738560
0000000796,   3.00000000 ,   6.00000000 ,   6.00000000 ,   4.83252435 ,   4.83252435 ,   59.6736554
0000000797,   4.00000000 ,   6.00000000 ,   6.00000000 ,   4.83238765 ,   4.83238765 ,   59.6735341
0000000798,   5.00000000 ,   6.00000000 ,   6.00000000 ,   4.83234309 ,   4.83234309 ,   59.6734951
0000000799,   6.00000000 ,   6.00000000 ,   6.00000000 ,   4.83238765 ,   4.83238765 ,   59.6735341
0000000800,   7.00000000 ,   6.00000000 ,   6.00000000 ,   4.83252435 ,   4.83252435 ,   59.6736554
0000000801,   8.00000000 ,   6.00000000 ,   6.00000000 ,   4.83274447 ,   4.83274447 ,   59.6738560
0000000802,   9.00000000 ,   6.00000000 ,   6.00000000 ,   4.83298294 ,   4.83298294 ,   59.6740808
0000000803,   10.0000000 ,   6.00000000 ,   6.00000000 ,   4.83309838 ,   4.83309838 ,   59.6741941
0000000804,   0.00000000 ,   7.00000000 ,   6.00000000 ,   4.63032117 ,   4.63032117 ,   59.5617192
0000000805,   1.00000000 ,   7.00000000 ,   6.00000000 ,   4.63002480 ,   4.63002480 ,   59.5613974
0000000806,   2.00000000 ,   7.00000000 ,   6.00000000 ,   4.62944647 ,   4.62944647 ,   59.5608047
0000000807,   3.00000000 ,   7.00000000 ,   6.00000000 ,   4.62893979 ,   4.62893979 ,   59.5603092
0000000808,   4.00000000 ,   7.00000000 ,   6.00000000 ,   4.62863812 ,   4.62863812 ,   59.5600248
0000000809,   5.00000000 ,   7.00000000 ,   6.00000000 ,   4.62854226 ,   4.62854226 ,   59.5599362
0000000810,   6.00000000 ,   7.00000000 ,   6.00000000 ,   4.62863812 ,   4.62863812 ,   59.5600248
0000000811,   7.00000000 ,   7.00000000 ,   6.00000000 ,   4.62893979 ,   4.62893979 ,   59.5603092
0000000812,   8.00000000 ,   7.00000000 ,   6.00000000 ,   4.62944647 ,   4.62944647 ,   59.5608047
0000000813,   9.00000000 ,   7.00000000 ,   6.00000000 ,   4.63002480 ,   4.63002480 ,   59.5613974
0000000814,   10.0000000 ,   7.00000000 ,   6.00000000 ,   4.63032117 ,   4.63032117 ,   59.5617192
0000000815,   0.00000000 ,   8.00000000 ,   6.00000000 ,   4.41667270 ,   4.41667270 ,   59.4602046
0000000816,   1.00000000 ,   8.00000000 ,   6.00000000 ,   4.41602837 ,   4.41602837 ,   59.4593827
0000000817,   2.00000000 ,   8.00000000 ,   6.00000000 ,   4.41485297 ,   4.41485297 ,   59.4580018
0000000818,   3.00000000 ,   8.00000000 ,   6.00000000 ,   4.41388147 ,   4.41388147 ,   59.4569284
0000000819,   4.00000000 ,   8.00000000 ,   6.00000000 ,   4.41333009 ,   4.41333009 ,   59.4563463
0000000820,   5.00000000 ,   8.00000000 ,   6.00000000 ,   4.41315957 ,   4.41315957 ,   59.4561708
0000000821,   6.00000000 ,   8.00000000 ,   6.00000000 ,   4.41333009 ,   4.41333009 ,   59.4563463
0000000822,   7.00000000 ,   8.00000000 ,   6.00000000 ,   4.41388147 ,   4.41388147 ,   59.4569284
0000000823,   8.00000000 ,   8.00000000 ,   6.00000000 ,   4.41485297 ,   4.41485297 ,   59.4580018
0000000824,   9.00000000 ,   8.00000000 ,   6.00000000 ,   4.41602837 ,   4.41602837 ,   59.4593827
0000000825,   10.0000000 ,   8.00000000 ,   6.00000000 ,   4.41667270 ,   4.41667270 ,   59.4602046
0000000826,   0.00000000 ,   9.00000000 ,   6.00000000 ,   4.18503560 ,   4.18503560 ,   59.3860627
0000000827,   1.00000000 ,   9.00000000 ,   6.00000000 ,   4.18406326 ,   4.18406326 ,   59.3843033
0000000828,   2.00000000 ,   9.00000000 ,   6.00000000 ,   4.18241838 ,   4.18241838 ,   59.3816453
0000000829,   3.00000000 ,   9.00000000 ,   6.00000000 ,   4.18113595 ,   4.18113595 ,   59.3797300
0000000830,   4.00000000 ,   9.00000000 ,   6.00000000 ,   4.18043984 ,   4.18043984 ,   59.3787476
0000000831,   5.00000000 ,   9.00000000 ,   6.00000000 ,   4.18022997 ,   4.18022997 ,   59.3784605
0000000832,   6.00000000 ,   9.00000000 ,   6.00000000 ,   4.18043984 ,   4.18043984 ,   59.3787476
0000000833,   7.00000000 ,   9.00000000 ,   6.00000000 ,   4.18113595 ,   4.18113595 ,   59.3797300
0000000834,   8.00000000 ,   9.00000000 ,   6.00000000 ,   4.18241838 ,   4.18241838 ,   59.3816453
0000000835,   9.00000000 ,   9.00000000 ,   6.00000000 ,   4.18406326 ,   4.18406326 ,   59.3843033
0000000836,   10.0000000 ,   9.00000000 ,   6.00000000 ,   4.18503560 ,   4.18503560 ,   59.3860627
0000000837,   0.00000000 ,   10.0000000 ,   6.00000000 ,   4.00000000 ,   4.00000000 ,   59.3664456
0000000838,   1.00000000 ,   10.0000000 ,   6.00000000 ,   4.00000000 ,   4.00000000 ,   59.3637584
0000000839,   2.00000000 ,   10.0000000 ,   6.00000000 ,   4.00000000 ,   4.00000000 ,   59.3600743
0000000840,   3.00000000 ,   10.0000000 ,   6.00000000 ,   4.00000000 ,   4.00000000 ,   59.3575698
0000000841,   4.00000000 ,   10.0000000 ,   6.00000000 ,   4.00000000 ,   4.00000000 ,   59.3563335
0000000842,   5.00000000 ,   10.0000000 ,   6.00000000 ,   4.00000000 ,   4.00000000 ,   59.3559794
0000000843,   6.00000000 ,   10.0000000 ,   6.00000000 ,   4.00000000 ,   4.00000000 ,   59.3563335
0000000844,   7.00000000 ,   10.0000000 ,   6.00000000 ,   4.00000000 ,   4.00000000 ,   59.3575698
0000000845,   8.00000000 ,   10.0000000 ,   6.00000000 ,   4.00000000 ,   4.00000000 ,   59.3600743
0000000846,   9.00000000 ,   10.0000000 ,   6.00000000 ,   4.00000000 ,   4.00000000 ,   59.3637584
0000000847,   10.0000000 ,   10.0000000 ,   6.00000000 ,   4.00000000 ,   4.00000000 ,   59.3664456
0000000848,   0.00000000 ,   0.00000000 ,   7.00000000 ,   6.00000000 ,   6.00000000 ,   59.9890959
0000000849,   1.00000000 ,   0.00000000 ,   7.00000000 ,   6.00000000 ,   6.00000000 ,   59.9890959
0000000850,   2.00000000 ,   0.00000000 ,   7.00000000 ,   6.00000000 ,   6.00000000 ,   59.9890959
0000000851,   3.00000000 ,   0.00000000 ,   7.00000000 ,   6.00000000 ,   6.00000000 ,   59.9890958
0000000852,   4.00000000 ,   0.00000000 ,   7.00000000 ,   6.00000000 ,   6.00000000 ,   59.9890958
0000000853,   5.00000000 ,   0.00000000 ,   7.00000000 ,   6.00000000 ,   6.00000000 ,   59.9890958
0000000854,   6.00000000 ,   0.00000000 ,   7.00000000 ,   6.00000000 ,   6.00000000 ,   59.9890958
0000000855,   7.00000000 ,   0.00000000 ,   7.00000000 ,   6.00000000 ,   6.00000000 ,   59.9890958
0000000856,   8.00000000 ,   0.00000000 ,   7.00000000 ,   6.00000000 ,   6.00000000 ,   59.9890959
0000000857,   9.00000000 ,   0.00000000 ,   7.00000000 ,   6.00000000 ,   6.00000000 ,   59.9890959
0000000858,   10.0000000 ,   0.00000000 ,   7.00000000 ,   6.00000000 ,   6.00000000 ,   59.9890959
0000000859,   0.00000000 ,   1.00000000 ,   7.00000000 ,   5.80761132 ,   5.80761132 ,   59.9489836
0000000860,   1.00000000 ,   1.00000000 ,   7.00000000 ,   5.80761132 ,   5.80761132 ,   59.9489836
0000000861,   2.00000000 ,   1.00000000 ,   7.00000000 ,   5.80761133 ,   5.80761133 ,   59.9489835
0000000862,   3.00000000 ,   1.00000000 ,   7.00000000 ,   5.80761134 ,   5.80761134 ,   59.9489834
0000000863,   4.00000000 ,   1.00000000 ,   7.00000000 ,   5.80761134 ,   5.80761134 ,   59.9489833
0000000864,   5.00000000 ,   1.00000000 ,   7.00000000 ,   5.80761134 ,   5.80761134 ,   59.9489833
0000000865,   6.00000000 ,   1.00000000 ,   7.00000000 ,   5.80761134 ,   5.80761134 ,   59.9489833
0000000866,   7.00000000 ,   1.00000000 ,   7.00000000 ,   5.80761134 ,   5.80761134 ,   59.9489834
0000000867,   8.00000000 ,   1.00000000 ,   7.00000000 ,   5.80761133 ,   5.80761133 ,   59.9489835
0000000868,   9.00000000 ,   1.00000000 ,   7.00000000 ,   5.80761132 ,   5.80761132 ,   59.9489836
0000000869,   10.0000000 ,   1.00000000 ,   7.00000000 ,   5.80761132 ,   5.80761132 ,   59.9489836
0000000870,   0.00000000 ,   2.00000000 ,   7.00000000 ,   5.61396803 ,   5.61396803 ,   59.8469295
0000000871,   1.00000000 ,   2.00000000 ,   7.00000000 ,   5.61396803 ,   5.61396803 ,   59.8469293
0000000872,   2.00000000 ,   2.00000000 ,   7.00000000 ,   5.61396804 ,   5.61396804 ,   59.8469290
0000000873,   3.00000000 ,   2.00000000 ,   7.00000000 ,   5.61396806 ,   5.61396806 ,   59.8469287
0000000874,   4.00000000 ,   2.00000000 ,   7.00000000 ,   5.61396807 ,   5.61396807 ,   59.8469284
0000000875,   5.00000000 ,   2.00000000 ,   7.00000000 ,   5.61396807 ,   5.61396807 ,   59.8469283
0000000876,   6.00000000 ,   2.00000000 ,   7.00000000 ,   5.61396807 ,   5.61396807 ,   59.8469284
0000000877,   7.00000000 ,   2.00000000 ,   7.00000000 ,   5.61396806 ,   5.61396806 ,   59.8469287
0000000878,   8.00000000 ,   2.00000000 ,   7.00000000 ,   5.61396804 ,   5.61396804 ,   59.8469290
0000000879,   9.00000000 ,   2.00000000 ,   7.00000000 ,   5.61396803 ,   5.61396803 ,   59.8469293
0000000880,   10.0000000 ,   2.00000000 ,   7.00000000 ,   5.61396803 ,   5.61396803 ,   59.8469295
0000000881,   0.00000000 ,   3.00000000 ,   7.00000000 ,   5.41877547 ,   5.41877547 ,   59.6881951
0000000882,   1.00000000 ,   3.00000000 ,   7.00000000 ,   5.41877548 ,   5.41877548 ,   59.6881947
0000000883,   2.00000000 ,   3.00000000 ,   7.00000000 ,   5.41877551 ,   5.41877551 ,   59.6881936
0000000884,   3.00000000 ,   3.00000000 ,   7.00000000 ,   5.41877554 ,   5.41877554 ,   59.6881925
0000000885,   4.00000000 ,   3.00000000 ,   7.00000000 ,   5.41877556 ,   5.41877556 ,   59.6881918
0000000886,   5.00000000 ,   3.00000000 ,   7.00000000 ,   5.41877557 ,   5.41877557 ,   59.6881915
0000000887,   6.00000000 ,   3.00000000 ,   7.00000000 ,   5.41877556 ,   5.41877556 ,   59.6881918
0000000888,   7.00000000 ,   3.00000000 ,   7.00000000 ,   5.41877554 ,   5.41877554 ,   59.6881925
0000000889,   8.00000000 ,   3.00000000 ,   7.00000000 ,   5.41877551 ,   5.41877551 ,   59.6881936
0000000890,   9.00000000 ,   3.00000000 ,   7.00000000 ,   5.41877548 ,   5.41877548 ,   59.6881947
0000000891,   10.0000000 ,   3.00000000 ,   7.00000000 ,   5.41877547 ,   5.41877547 ,   59.6881951
0000000892,   0.00000000 ,   4.00000000 ,   7.00000000 ,   5.22181914 ,   5.22181914 ,   59.4830591
0000000893,   1.00000000 ,   4.00000000 ,   7.00000000 ,   5.22181916 ,   5.22181916 ,   59.4830576
0000000894,   2.00000000 ,   4.00000000 ,   7.00000000 ,   5.22181921 ,   5.22181921 ,   59.4830543
0000000895,   3.00000000 ,   4.00000000 ,   7.00000000 ,   5.22181927 ,   5.22181927 ,   59.4830509
0000000896,   4.00000000 ,   4.00000000 ,   7.00000000 ,   5.22181931 ,   5.22181931 ,   59.4830487
0000000897,   5.00000000 ,   4.00000000 ,   7.00000000 ,   5.22181932 ,   5.22181932 ,   59.4830479
0000000898,   6.00000000 ,   4.00000000 ,   7.00000000 ,   5.22181931 ,   5.22181931 ,   59.4830487
0000000899,   7.00000000 ,   4.00000000 ,   7.00000000 ,   5.22181927 ,   5.22181927 ,   59.4830509
0000000900,   8.00000000 ,   4.00000000 ,   7.00000000 ,   5.22181921 ,   5.22181921 ,   59.4830543
0000000901,   9.00000000 ,   4.00000000 ,   7.00000000 ,   5.22181916 ,   5.22181916 ,   59.4830576
0000000902,   10.0000000 ,   4.00000000 ,   7.00000000 ,   5.22181914 ,   5.22181914 ,   59.4830591
0000000903,   0.00000000 ,   5.00000000 ,   7.00000000 ,   5.02296818 ,   5.02296818 ,   59.2439067
0000000904,   1.00000000 ,   5.00000000 ,   7.00000000 ,   5.02296821 ,   5.02296821 ,   59.2439021
0000000905,   2.00000000 ,   5.00000000 ,   7.00000000 ,   5.02296830 ,   5.02296830 ,   59.2438920
0000000906,   3.00000000 ,   5.00000000 ,   7.00000000 ,   5.02296840 ,   5.02296840 ,   59.2438822
0000000907,   4.00000000 ,   5.00000000 ,   7.00000000 ,   5.02296848 ,   5.02296848 ,   59.2438758
0000000908,   5.00000000 ,   5.00000000 ,   7.00000000 ,   5.02296850 ,   5.02296850 ,   59.2438737
0000000909,   6.00000000 ,   5.00000000 ,   7.00000000 ,   5.02296848 ,   5.02296848 ,   59.2438758
0000000910,   7.00000000 ,   5.00000000 ,   7.00000000 ,   5.02296840 ,   5.02296840 ,   59.2438822
0000000911,   8.00000000 ,   5.00000000 ,   7.00000000 ,   5.02296830 ,   5.02296830 ,   59.2438920
0000000912,   9.00000000 ,   5.00000000 ,   7.00000000 ,   5.02296821 ,   5.02296821 ,   59.2439021
0000000913,   10.0000000 ,   5.00000000 ,   7.00000000 ,   5.02296818 ,   5.02296818 ,   59.2439067
0000000914,   0.00000000 ,   6.00000000 ,   7.00000000 ,   4.82216452 ,   4.82216452 ,   58.9832775
0000000915,   1.00000000 ,   6.00000000 ,   7.00000000 ,   4.82216458 ,   4.82216458 ,   58.9832636
0000000916,   2.00000000 ,   6.00000000 ,   7.00000000 ,   4.82216474 ,   4.82216474 ,   58.9832348
0000000917,   3.00000000 ,   6.00000000 ,   7.00000000 ,   4.82216490 ,   4.82216490 ,   58.9832082
0000000918,   4.00000000 ,   6.00000000 ,   7.00000000 ,   4.82216503 ,   4.82216503 ,   58.9831916
0000000919,   5.00000000 ,   6.00000000 ,   7.00000000 ,   4.82216507 ,   4.82216507 ,   58.9831862
0000000920,   6.00000000 ,   6.00000000 ,   7.00000000 ,   4.82216503 ,   4.82216503 ,   58.9831916
0000000921,   7.00000000 ,   6.00000000 ,   7.00000000 ,   4.82216490 ,   4.82216490 ,   58.9832082
0000000922,   8.00000000 ,   6.00000000 ,   7.00000000 ,   4.82216474 ,   4.82216474 ,   58.9832348
0000000923,   9.00000000 ,   6.00000000 ,   7.00000000 ,   4.82216458 ,   4.82216458 ,   58.9832636
0000000924,   10.0000000 ,   6.00000000 ,   7.00000000 ,   4.82216452 ,   4.82216452 ,   58.9832775
0000000925,   0.00000000 ,   7.00000000 ,   7.00000000 ,   4.61940720 ,   4.61940720 ,   58.7128634
0000000926,   1.00000000 ,   7.00000000 ,   7.00000000 ,   4.61940731 ,   4.61940731 ,   58.7128247
0000000927,   2.00000000 ,   7.00000000 ,   7.00000000 ,   4.61940755 ,   4.61940755 ,   58.7127493
0000000928,   3.00000000 ,   7.00000000 ,   7.00000000 ,   4.61940781 ,   4.61940781 ,   58.7126830
0000000929,   4.00000000 ,   7.00000000 ,   7.00000000 ,   4.61940799 ,   4.61940799 ,   58.7126435
0000000930,   5.00000000 ,   7.00000000 ,   7.00000000 ,   4.61940806 ,   4.61940806 ,   58.7126308
0000000931,   6.00000000 ,   7.00000000 ,   7.00000000 ,   4.61940799 ,   4.61940799 ,   58.7126435
0000000932,   7.00000000 ,   7.00000000 ,   7.00000000 ,   4.61940781 ,   4.61940781 ,   58.7126830
0000000933,   8.00000000 ,   7.00000000 ,   7.00000000 ,   4.61940755 ,   4.61940755 ,   58.7127493
0000000934,   9.00000000 ,   7.00000000 ,   7.00000000 ,   4.61940731 ,   4.61940731 ,   58.7128247
0000000935,   10.0000000 ,   7.00000000 ,   7.00000000 ,   4.61940720 ,   4.61940720 ,   58.7128634
0000000936,   0.00000000 ,   8.00000000 ,   7.00000000 ,   4.41473678 ,   4.41473678 ,   58.4441673
0000000937,   1.00000000 ,   8.00000000 ,   7.00000000 ,   4.41473694 ,   4.41473694 ,   58.4440702
0000000938,   2.00000000 ,   8.00000000 ,   7.00000000 ,   4.41473728 ,   4.41473728 ,   58.4438937
0000000939,   3.00000000 ,   8.00000000 ,   7.00000000 ,   4.41473761 ,   4.41473761 ,   58.4437473
0000000940,   4.00000000 ,   8.00000000 ,   7.00000000 ,   4.41473784 ,   4.41473784 ,   58.4436636
0000000941,   5.00000000 ,   8.00000000 ,   7.00000000 ,   4.41473792 ,   4.41473792 ,   58.4436376
0000000942,   6.00000000 ,   8.00000000 ,   7.00000000 ,   4.41473784 ,   4.41473784 ,   58.4436636
0000000943,   7.00000000 ,   8.00000000 ,   7.00000000 ,   4.41473761 ,   4.41473761 ,   58.4437473
0000000944,   8.00000000 ,   8.00000000 ,   7.00000000 ,   4.41473728 ,   4.41473728 ,   58.4438937
0000000945,   9.00000000 ,   8.00000000 ,   7.00000000 ,   4.41473694 ,   4.41473694 ,   58.4440702
0000000946,   10.0000000 ,   8.00000000 ,   7.00000000 ,   4.41473678 ,   4.41473678 ,   58.4441673
0000000947,   0.00000000 ,   9.00000000 ,   7.00000000 ,   4.20822514 ,   4.20822514 ,   58.1989411
0000000948,   1.00000000 ,   9.00000000 ,   7.00000000 ,   4.20822530 ,   4.20822530 ,   58.1987365
0000000949,   2.00000000 ,   9.00000000 ,   7.00000000 ,   4.20822562 ,   4.20822562 ,   58.1983908
0000000950,   3.00000000 ,   9.00000000 ,   7.00000000 ,   4.20822593 ,   4.20822593 ,   58.1981193
0000000951,   4.00000000 ,   9.00000000 ,   7.00000000 ,   4.20822613 ,   4.20822613 ,   58.1979704
0000000952,   5.00000000 ,   9.00000000 ,   7.00000000 ,   4.20822620 ,   4.20822620 ,   58.1979251
0000000953,   6.00000000 ,   9.00000000 ,   7.00000000 ,   4.20822613 ,   4.20822613 ,   58.1979704
0000000954,   7.00000000 ,   9.00000000 ,   7.00000000 ,   4.20822593 ,   4.20822593 ,   58.1981193
0000000955,   8.00000000 ,   9.00000000 ,   7.00000000 ,   4.20822562 ,   4.20822562 ,   58.1983908
0000000956,   9.00000000 ,   9.00000000 ,   7.00000000 ,   4.20822530 ,   4.20822530 ,   58.1987365
0000000957,   10.0000000 ,   9.00000000 ,   7.00000000 ,   4.20822514 ,   4.20822514 ,   58.1989411
0000000958,   0.00000000 ,   10.0000000 ,   7.00000000 ,   4.00000000 ,   4.00000000 ,   58.1099879
0000000959,   1.00000000 ,   10.0000000 ,   7.00000000 ,   4.00000000 ,   4.00000000 ,   58.1097023
0000000960,   2.00000000 ,   10.0000000 ,   7.00000000 ,   4.00000000 ,   4.00000000 ,   58.1092430
0000000961,   3.00000000 ,   10.0000000 ,   7.00000000 ,   4.00000000 ,   4.00000000 ,   58.1088933
0000000962,   4.00000000 ,   10.0000000 ,   7.00000000 ,   4.00000000 ,   4.00000000 ,   58.1087054
0000000963,   5.00000000 ,   10.0000000 ,   7.00000000 ,   4.00000000 ,   4.00000000 ,   58.1086489
0000000964,   6.00000000 ,   10.0000000 ,   7.00000000 ,   4.00000000 ,   4.00000000 ,   58.1087054
0000000965,   7.00000000 ,   10.0000000 ,   7.00000000 ,   4.00000000 ,   4.00000000 ,   58.1088933
0000000966,   8.00000000 ,   10.0000000 ,   7.00000000 ,   4.00000000 ,   4.00000000 ,   58.1092430
0000000967,   9.00000000 ,   10.0000000 ,   7.00000000 ,   4.00000000 ,   4.00000000 ,   58.1097023
0000000968,   10.0000000 ,   10.0000000 ,   7.00000000 ,   4.00000000 ,   4.00000000 ,   58.1099879
0000000969,   0.00000000 ,   0.00000000 ,   8.00000000 ,   6.00000000 ,   6.00000000 ,   59.8143137
0000000970,   1.00000000 ,   0.00000000 ,   8.00000000 ,   6.00000000 ,   6.00000000 ,   59.8143137
0000000971,   2.00000000 ,   0.00000000 ,   8.00000000 ,   6.00000000 ,   6.00000000 ,   59.8143137
0000000972,   3.00000000 ,   0.00000000 ,   8.00000000 ,   6.00000000 ,   6.00000000 ,   59.8143137
0000000973,   4.00000000 ,   0.00000000 ,   8.00000000 ,   6.00000000 ,   6.00000000 ,   59.8143137
0000000974,   5.00000000 ,   0.00000000 ,   8.00000000 ,   6.00000000 ,   6.00000000 ,   59.8143136
0000000975,   6.00000000 ,   0.00000000 ,   8.00000000 ,   6.00000000 ,   6.00000000 ,   59.8143137
0000000976,   7.00000000 ,   0.00000000 ,   8.00000000 ,   6.00000000 ,   6.00000000 ,   59.8143137
0000000977,   8.00000000 ,   0.00000000 ,   8.00000000 ,   6.00000000 ,   6.00000000 ,   59.8143137
0000000978,   9.00000000 ,   0.00000000 ,   8.00000000 ,   6.00000000 ,   6.00000000 ,   59.8143137
0000000979,   10.0000000 ,   0.00000000 ,   8.00000000 ,   6.00000000 ,   6.00000000 ,   59.8143137
0000000980,   0.00000000 ,   1.00000000 ,   8.00000000 ,   5.80941941 ,   5.80941941 ,   59.3188450
0000000981,   1.00000000 ,   1.00000000 ,   8.00000000 ,   5.80941941 ,   5.80941941 ,   59.3188449
0000000982,   2.00000000 ,   1.00000000 ,   8.00000000 ,   5.80941941 ,   5.80941941 ,   59.3188449
0000000983,   3.00000000 ,   1.00000000 ,   8.00000000 ,   5.80941942 ,   5.80941942 ,   59.3188449
0000000984,   4.00000000 ,   1.00000000 ,   8.00000000 ,   5.80941942 ,   5.80941942 ,   59.3188449
0000000985,   5.00000000 ,   1.00000000 ,   8.00000000 ,   5.80941942 ,   5.80941942 ,   59.3188449
0000000986,   6.00000000 ,   1.00000000 ,   8.00000000 ,   5.80941942 ,   5.80941942 ,   59.3188449
0000000987,   7.00000000 ,   1.00000000 ,   8.00000000 ,   5.80941942 ,   5.80941942 ,   59.3188449
0000000988,   8.00000000 ,   1.00000000 ,   8.00000000 ,   5.80941941 ,   5.80941941 ,   59.3188449
0000000989,   9.00000000 ,   1.00000000 ,   8.00000000 ,   5.80941941 ,   5.80941941 ,   59.3188449
0000000990,   10.0000000 ,   1.00000000 ,   8.00000000 ,   5.80941941 ,   5.80941941 ,   59.3188450
0000000991,   0.00000000 ,   2.00000000 ,   8.00000000 ,   5.61706517 ,   5.61706517 ,   58.6791767
0000000992,   1.00000000 ,   2.00000000 ,   8.00000000 ,   5.61706517 ,   5.61706517 ,   58.6791767
0000000993,   2.00000000 ,   2.00000000 ,   8.00000000 ,   5.61706517 ,   5.61706517 ,   58.6791766
0000000994,   3.00000000 ,   2.00000000 ,   8.00000000 ,   5.61706518 ,   5.61706518 ,   58.6791766
0000000995,   4.00000000 ,   2.00000000 ,   8.00000000 ,   5.61706519 ,   5.61706519 ,   58.6791765
0000000996,   5.00000000 ,   2.00000000 ,   8.00000000 ,   5.61706519 ,   5.61706519 ,   58.6791765
0000000997,   6.00000000 ,   2.00000000 ,   8.00000000 ,   5.61706519 ,   5.61706519 ,   58.6791765
0000000998,   7.00000000 ,   2.00000000 ,   8.00000000 ,   5.61706518 ,   5.61706518 ,   58.6791766
0000000999,   8.00000000 ,   2.00000000 ,   8.00000000 ,   5.61706517 ,   5.61706517 ,   58.6791766
0000001000,   9.00000000 ,   2.00000000 ,   8.00000000 ,   5.61706517 ,   5.61706517 ,   58.6791767
0000001001,   10.0000000 ,   2.00000000 ,   8.00000000 ,   5.61706517 ,   5.61706517 ,   58.6791767
0000001002,   0.00000000 ,   3.00000000 ,   8.00000000 ,   5.42247858 ,   5.42247858 ,   57.9699069
0000001003,   1.00000000 ,   3.00000000 ,   8.00000000 ,   5.42247859 ,   5.42247859 ,   57.9699068
0000001004,   2.00000000 ,   3.00000000 ,   8.00000000 ,   5.42247859 ,   5.42247859 ,   57.9699067
0000001005,   3.00000000 ,   3.00000000 ,   8.00000000 ,   5.42247861 ,   5.42247861 ,   57.9699066
0000001006,   4.00000000 ,   3.00000000 ,   8.00000000 ,   5.42247861 ,   5.42247861 ,   57.9699064
0000001007,   5.00000000 ,   3.00000000 ,   8.00000000 ,   5.42247862 ,   5.42247862 ,   57.9699064
0000001008,   6.00000000 ,   3.00000000 ,   8.00000000 ,   5.42247861 ,   5.42247861 ,   57.9699064
0000001009,   7.00000000 ,   3.00000000 ,   8.00000000 ,   5.42247861 ,   5.42247861 ,   57.9699066
0000001010,   8.00000000 ,   3.00000000 ,   8.00000000 ,   5.42247859 ,   5.42247859 ,   57.9699067
0000001011,   9.00000000 ,   3.00000000 ,   8.00000000 ,   5.42247859 ,   5.42247859 ,   57.9699068
0000001012,   10.0000000 ,   3.00000000 ,   8.00000000 ,   5.42247858 ,   5.42247858 ,   57.9699069
0000001013,   0.00000000 ,   4.00000000 ,   8.00000000 ,   5.22553166 ,   5.22553166 ,   57.2412977
0000001014,   1.00000000 ,   4.00000000 ,   8.00000000 ,   5.22553167 ,   5.22553167 ,   57.2412975
0000001015,   2.00000000 ,   4.00000000 ,   8.00000000 ,   5.22553169 ,   5.22553169 ,   57.2412971
0000001016,   3.00000000 ,   4.00000000 ,   8.00000000 ,   5.22553171 ,   5.22553171 ,   57.2412966
0000001017,   4.00000000 ,   4.00000000 ,   8.00000000 ,   5.22553172 ,   5.22553172 ,   57.2412963
0000001018,   5.00000000 ,   4.00000000 ,   8.00000000 ,   5.22553173 ,   5.22553173 ,   57.2412962
0000001019,   6.00000000 ,   4.00000000 ,   8.00000000 ,   5.22553172 ,   5.22553172 ,   57.2412963
0000001020,   7.00000000 ,   4.00000000 ,   8.00000000 ,   5.22553171 ,   5.22553171 ,   57.2412966
0000001021,   8.00000000 ,   4.00000000 ,   8.00000000 ,   5.22553169 ,   5.22553169 ,   57.2412971
0000001022,   9.00000000 ,   4.00000000 ,   8.00000000 ,   5.22553167 ,   5.22553167 ,   57.2412975
0000001023,   10.0000000 ,   4.00000000 ,   8.00000000 ,   5.22553166 ,   5.22553166 ,   57.2412977
0000001024,   0.00000000 ,   5.00000000 ,   8.00000000 ,   5.02626122 ,   5.02626122 ,   56.5263241
0000001025,   1.00000000 ,   5.00000000 ,   8.00000000 ,   5.02626123 ,   5.02626123 ,   56.5263235
0000001026,   2.00000000 ,   5.00000000 ,   8.00000000 ,   5.02626125 ,   5.02626125 ,   56.5263222
0000001027,   3.00000000 ,   5.00000000 ,   8.00000000 ,   5.02626129 ,   5.02626129 ,   56.5263209
0000001028,   4.00000000 ,   5.00000000 ,   8.00000000 ,   5.02626131 ,   5.02626131 ,   56.5263201
0000001029,   5.00000000 ,   5.00000000 ,   8.00000000 ,   5.02626132 ,   5.02626132 ,   56.5263198
0000001030,   6.00000000 ,   5.00000000 ,   8.00000000 ,   5.02626131 ,   5.02626131 ,   56.5263201
0000001031,   7.00000000 ,   5.00000000 ,   8.00000000 ,   5.02626129 ,   5.02626129 ,   56.5263209
0000001032,   8.00000000 ,   5.00000000 ,   8.00000000 ,   5.02626125 ,   5.02626125 ,   56.5263222
0000001033,   9.00000000 ,   5.00000000 ,   8.00000000 ,   5.02626123 ,   5.02626123 ,   56.5263235
0000001034,   10.0000000 ,   5.00000000 ,   8.00000000 ,   5.02626122 ,   5.02626122 ,   56.5263241
0000001035,   0.00000000 ,   6.00000000 ,   8.00000000 ,   4.82478313 ,   4.82478313 ,   55.8459847
0000001036,   1.00000000 ,   6.00000000 ,   8.00000000 ,   4.82478315 ,   4.82478315 ,   55.8459829
0000001037,   2.00000000 ,   6.00000000 ,   8.00000000 ,   4.82478319 ,   4.82478319 ,   55.8459792
0000001038,   3.00000000 ,   6.00000000 ,   8.00000000 ,   4.82478324 ,   4.82478324 ,   55.8459756
0000001039,   4.00000000 ,   6.00000000 ,   8.00000000 ,   4.82478328 ,   4.82478328 ,   55.8459734
0000001040,   5.00000000 ,   6.00000000 ,   8.00000000 ,   4.82478329 ,   4.82478329 ,   55.8459726
0000001041,   6.00000000 ,   6.00000000 ,   8.00000000 ,   4.82478328 ,   4.82478328 ,   55.8459734
0000001042,   7.00000000 ,   6.00000000 ,   8.00000000 ,   4.82478324 ,   4.82478324 ,   55.8459756
0000001043,   8.00000000 ,   6.00000000 ,   8.00000000 ,   4.82478319 ,   4.82478319 ,   55.8459792
0000001044,   9.00000000 ,   6.00000000 ,   8.00000000 ,   4.82478315 ,   4.82478315 ,   55.8459829
0000001045,   10.0000000 ,   6.00000000 ,   8.00000000 ,   4.82478313 ,   4.82478313 ,   55.8459847
0000001046,   0.00000000 ,   7.00000000 ,   8.00000000 ,   4.62124737 ,   4.62124737 ,   55.2131046
0000001047,   1.00000000 ,   7.00000000 ,   8.00000000 ,   4.62124739 ,   4.62124739 ,   55.2130998
0000001048,   2.00000000 ,   7.00000000 ,   8.00000000 ,   4.62124745 ,   4.62124745 ,   55.2130900
0000001049,   3.00000000 ,   7.00000000 ,   8.00000000 ,   4.62124752 ,   4.62124752 ,   55.2130810
0000001050,   4.00000000 ,   7.00000000 ,   8.00000000 ,   4.62124757 ,   4.62124757 ,   55.2130755
0000001051,   5.00000000 ,   7.00000000 ,   8.00000000 ,   4.62124759 ,   4.62124759 ,   55.2130737
0000001052,   6.00000000 ,   7.00000000 ,   8.00000000 ,   4.62124757 ,   4.62124757 ,   55.2130755
0000001053,   7.00000000 ,   7.00000000 ,   8.00000000 ,   4.62124752 ,   4.62124752 ,   55.2130810
0000001054,   8.00000000 ,   7.00000000 ,   8.00000000 ,   4.62124745 ,   4.62124745 ,   55.2130900
0000001055,   9.00000000 ,   7.00000000 ,   8.00000000 ,   4.62124739 ,   4.62124739 ,   55.2130998
0000001056,   10.0000000 ,   7.00000000 ,   8.00000000 ,   4.62124737 ,   4.62124737 ,   55.2131046
0000001057,   0.00000000 ,   8.00000000 ,   8.00000000 ,   4.41581472 ,   4.41581472 ,   54.6366000
0000001058,   1.00000000 ,   8.00000000 ,   8.00000000 ,   4.41581475 ,   4.41581475 ,   54.6365880
0000001059,   2.00000000 ,   8.00000000 ,   8.00000000 ,   4.41581483 ,   4.41581483 ,   54.6365650
0000001060,   3.00000000 ,   8.00000000 ,   8.00000000 ,   4.41581491 ,   4.41581491 ,   54.6365448
0000001061,   4.00000000 ,   8.00000000 ,   8.00000000 ,   4.41581497 ,   4.41581497 ,   54.6365327
0000001062,   5.00000000 ,   8.00000000 ,   8.00000000 ,   4.41581499 ,   4.41581499 ,   54.6365289
0000001063,   6.00000000 ,   8.00000000 ,   8.00000000 ,   4.41581497 ,   4.41581497 ,   54.6365327
0000001064,   7.00000000 ,   8.00000000 ,   8.00000000 ,   4.41581491 ,   4.41581491 ,   54.6365448
0000001065,   8.00000000 ,   8.00000000 ,   8.00000000 ,   4.41581483 ,   4.41581483 ,   54.6365650
0000001066,   9.00000000 ,   8.00000000 ,   8.00000000 ,   4.41581475 ,   4.41581475 ,   54.6365880
0000001067,   10.0000000 ,   8.00000000 ,   8.00000000 ,   4.41581472 ,   4.41581472 ,   54.6366000
0000001068,   0.00000000 ,   9.00000000 ,   8.00000000 ,   4.20865221 ,   4.20865221 ,   54.1413061
0000001069,   1.00000000 ,   9.00000000 ,   8.00000000 ,   4.20865224 ,   4.20865224 ,   54.1412813
0000001070,   2.00000000 ,   9.00000000 ,   8.00000000 ,   4.20865231 ,   4.20865231 ,   54.1412357
0000001071,   3.00000000 ,   9.00000000 ,   8.00000000 ,   4.20865237 ,   4.20865237 ,   54.1411973
0000001072,   4.00000000 ,   9.00000000 ,   8.00000000 ,   4.20865242 ,   4.20865242 ,   54.1411750
0000001073,   5.00000000 ,   9.00000000 ,   8.00000000 ,   4.20865244 ,   4.20865244 ,   54.1411681
0000001074,   6.00000000 ,   9.00000000 ,   8.00000000 ,   4.20865242 ,   4.20865242 ,   54.1411750
0000001075,   7.00000000 ,   9.00000000 ,   8.00000000 ,   4.20865237 ,   4.20865237 ,   54.1411973
0000001076,   8.00000000 ,   9.00000000 ,   8.00000000 ,   4.20865231 ,   4.20865231 ,   54.1412357
0000001077,   9.00000000 ,   9.00000000 ,   8.00000000 ,   4.20865224 ,   4.20865224 ,   54.1412813
0000001078,   10.0000000 ,   9.00000000 ,   8.00000000 ,   4.20865221 ,   4.20865221 ,   54.1413061
0000001079,   0.00000000 ,   10.0000000 ,   8.00000000 ,   4.00000000 ,   4.00000000 ,   53.9504917
0000001080,   1.00000000 ,   10.0000000 ,   8.00000000 ,   4.00000000 ,   4.00000000 ,   53.9504583
0000001081,   2.00000000 ,   10.0000000 ,   8.00000000 ,   4.00000000 ,   4.00000000 ,   53.9503984
0000001082,   3.00000000 ,   10.0000000 ,   8.00000000 ,   4.00000000 ,   4.00000000 ,   53.9503488
0000001083,   4.00000000 ,   10.0000000 ,   8.00000000 ,   4.00000000 ,   4.00000000 ,   53.9503205
0000001084,   5.00000000 ,   10.0000000 ,   8.00000000 ,   4.00000000 ,   4.00000000 ,   53.9503117
0000001085,   6.00000000 ,   10.0000000 ,   8.00000000 ,   4.00000000 ,   4.00000000 ,   53.9503205
0000001086,   7.00000000 ,   10.0000000 ,   8.00000000 ,   4.00000000 ,   4.00000000 ,   53.9503488
0000001087,   8.00000000 ,   10.0000000 ,   8.00000000 ,   4.00000000 ,   4.00000000 ,   53.9503984
0000001088,   9.00000000 ,   10.0000000 ,   8.00000000 ,   4.00000000 ,   4.00000000 ,   53.9504583
0000001089,   10.0000000 ,   10.0000000 ,   8.00000000 ,   4.00000000 ,   4.00000000 ,   53.9504917
0000001090,   0.00000000 ,   0.00000000 ,   9.00000000 ,   6.00000000 ,   6.00000000 ,   57.8009212
0000001091,   1.00000000 ,   0.00000000 ,   9.00000000 ,   6.00000000 ,   6.00000000 ,   57.8009212
0000001092,   2.00000000 ,   0.00000000 ,   9.00000000 ,   6.00000000 ,   6.00000000 ,   57.8009212
0000001093,   3.00000000 ,   0.00000000 ,   9.00000000 ,   6.00000000 ,   6.00000000 ,   57.8009212
0000001094,   4.00000000 ,   0.00000000 ,   9.00000000 ,   6.00000000 ,   6.00000000 ,   57.8009211
0000001095,   5.00000000 ,   0.00000000 ,   9.00000000 ,   6.00000000 ,   6.00000000 ,   57.8009211
0000001096,   6.00000000 ,   0.00000000 ,   9.00000000 ,   6.00000000 ,   6.00000000 ,   57.8009211
0000001097,   7.00000000 ,   0.00000000 ,   9.00000000 ,   6.00000000 ,   6.00000000 ,   57.8009212
0000001098,   8.00000000 ,   0.00000000 ,   9.00000000 ,   6.00000000 ,   6.00000000 ,   57.8009212
0000001099,   9.00000000 ,   0.00000000 ,   9.00000000 ,   6.00000000 ,   6.00000000 ,   57.8009212
0000001100,   10.0000000 ,   0.00000000 ,   9.00000000 ,   6.00000000 ,   6.00000000 ,   57.8009212
0000001101,   0.00000000 ,   1.00000000 ,   9.00000000 ,   5.81600884 ,   5.81600884 ,   55.0128199
0000001102,   1.00000000 ,   1.00000000 ,   9.00000000 ,   5.81600884 ,   5.81600884 ,   55.0128199
0000001103,   2.00000000 ,   1.00000000 ,   9.00000000 ,   5.81600884 ,   5.81600884 ,   55.0128199
0000001104,   3.00000000 ,   1.00000000 ,   9.00000000 ,   5.81600884 ,   5.81600884 ,   55.0128199
0000001105,   4.00000000 ,   1.00000000 ,   9.00000000 ,   5.81600884 ,   5.81600884 ,   55.0128199
0000001106,   5.00000000 ,   1.00000000 ,   9.00000000 ,   5.81600884 ,   5.81600884 ,   55.0128199
0000001107,   6.00000000 ,   1.00000000 ,   9.00000000 ,   5.81600884 ,   5.81600884 ,   55.0128199
0000001108,   7.00000000 ,   1.00000000 ,   9.00000000 ,   5.81600884 ,   5.81600884 ,   55.0128199
0000001109,   8.00000000 ,   1.00000000 ,   9.00000000 ,   5.81600884 ,   5.81600884 ,   55.0128199
0000001110,   9.00000000 ,   1.00000000 ,   9.00000000 ,   5.81600884 ,   5.81600884 ,   55.0128199
0000001111,   10.0000000 ,   1.00000000 ,   9.00000000 ,   5.81600884 ,   5.81600884 ,   55.0128199
0000001112,   0.00000000 ,   2.00000000 ,   9.00000000 ,   5.62573779 ,   5.62573779 ,   52.7447449
0000001113,   1.00000000 ,   2.00000000 ,   9.00000000 ,   5.62573779 ,   5.62573779 ,   52.7447449
0000001114,   2.00000000 ,   2.00000000 ,   9.00000000 ,   5.62573779 ,   5.62573779 ,   52.7447449
0000001115,   3.00000000 ,   2.00000000 ,   9.00000000 ,   5.62573779 ,   5.62573779 ,   52.7447449
0000001116,   4.00000000 ,   2.00000000 ,   9.00000000 ,   5.62573779 ,   5.62573779 ,   52.7447448
0000001117,   5.00000000 ,   2.00000000 ,   9.00000000 ,   5.62573779 ,   5.62573779 ,   52.7447448
0000001118,   6.00000000 ,   2.00000000 ,   9.00000000 ,   5.62573779 ,   5.62573779 ,   52.7447448
0000001119,   7.00000000 ,   2.00000000 ,   9.00000000 ,   5.62573779 ,   5.62573779 ,   52.7447449
0000001120,   8.00000000 ,   2.00000000 ,   9.00000000 ,   5.62573779 ,   5.62573779 ,   52.7447449
0000001121,   9.00000000 ,   2.00000000 ,   9.00000000 ,   5.62573779 ,   5.62573779 ,   52.7447449
0000001122,   10.0000000 ,   2.00000000 ,   9.00000000 ,   5.62573779 ,   5.62573779 ,   52.7447449
0000001123,   0.00000000 ,   3.00000000 ,   9.00000000 ,   5.43093276 ,   5.43093276 ,   50.8832415
0000001124,   1.00000000 ,   3.00000000 ,   9.00000000 ,   5.43093276 ,   5.43093276 ,   50.8832415
0000001125,   2.00000000 ,   3.00000000 ,   9.00000000 ,   5.43093276 ,   5.43093276 ,   50.8832414
0000001126,   3.00000000 ,   3.00000000 ,   9.00000000 ,   5.43093277 ,   5.43093277 ,   50.8832414
0000001127,   4.00000000 ,   3.00000000 ,   9.00000000 ,   5.43093277 ,   5.43093277 ,   50.8832414
0000001128,   5.00000000 ,   3.00000000 ,   9.00000000 ,   5.43093277 ,   5.43093277 ,   50.8832414
0000001129,   6.00000000 ,   3.00000000 ,   9.00000000 ,   5.43093277 ,   5.43093277 ,   50.8832414
0000001130,   7.00000000 ,   3.00000000 ,   9.00000000 ,   5.43093277 ,   5.43093277 ,   50.8832414
0000001131,   8.00000000 ,   3.00000000 ,   9.00000000 ,   5.43093276 ,   5.43093276 ,   50.8832414
0000001132,   9.00000000 ,   3.00000000 ,   9.00000000 ,   5.43093276 ,   5.43093276 ,   50.8832415
0000001133,   10.0000000 ,   3.00000000 ,   9.00000000 ,   5.43093276 ,   5.43093276 ,   50.8832415
0000001134,   0.00000000 ,   4.00000000 ,   9.00000000 ,   5.23269580 ,   5.23269580 ,   49.3482294
0000001135,   1.00000000 ,   4.00000000 ,   9.00000000 ,   5.23269580 ,   5.23269580 ,   49.3482293
0000001136,   2.00000000 ,   4.00000000 ,   9.00000000 ,   5.23269580 ,   5.23269580 ,   49.3482293
0000001137,   3.00000000 ,   4.00000000 ,   9.00000000 ,   5.23269581 ,   5.23269581 ,   49.3482292
0000001138,   4.00000000 ,   4.00000000 ,   9.00000000 ,   5.23269581 ,   5.23269581 ,   49.3482291
0000001139,   5.00000000 ,   4.00000000 ,   9.00000000 ,   5.23269581 ,   5.23269581 ,   49.3482291
0000001140,   6.00000000 ,   4.00000000 ,   9.00000000 ,   5.23269581 ,   5.23269581 ,   49.3482291
0000001141,   7.00000000 ,   4.00000000 ,   9.00000000 ,   5.23269581 ,   5.23269581 ,   49.3482292
0000001142,   8.00000000 ,   4.00000000 ,   9.00000000 ,   5.23269580 ,   5.23269580 ,   49.3482293
0000001143,   9.00000000 ,   4.00000000 ,   9.00000000 ,   5.23269580 ,   5.23269580 ,   49.3482293
0000001144,   10.0000000 ,   4.00000000 ,   9.00000000 ,   5.23269580 ,   5.23269580 ,   49.3482294
0000001145,   0.00000000 ,   5.00000000 ,   9.00000000 ,   5.03176129 ,   5.03176129 ,   48.0797827
0000001146,   1.00000000 ,   5.00000000 ,   9.00000000 ,   5.03176129 ,   5.03176129 ,   48.0797826
0000001147,   2.00000000 ,   5.00000000 ,   9.00000000 ,   5.03176130 ,   5.03176130 ,   48.0797824
0000001148,   3.00000000 ,   5.00000000 ,   9.00000000 ,   5.03176131 ,   5.03176131 ,   48.0797821
0000001149,   4.00000000 ,   5.00000000 ,   9.00000000 ,   5.03176131 ,   5.03176131 ,   48.0797820
0000001150,   5.00000000 ,   5.00000000 ,   9.00000000 ,   5.03176132 ,   5.03176132 ,   48.0797819
0000001151,   6.00000000 ,   5.00000000 ,   9.00000000 ,   5.03176131 ,   5.03176131 ,   48.0797820
0000001152,   7.00000000 ,   5.00000000 ,   9.00000000 ,   5.03176131 ,   5.03176131 ,   48.0797821
0000001153,   8.00000000 ,   5.00000000 ,   9.00000000 ,   5.03176130 ,   5.03176130 ,   48.0797824
0000001154,   9.00000000 ,   5.00000000 ,   9.00000000 ,   5.03176129 ,   5.03176129 ,   48.0797826
0000001155,   10.0000000 ,   5.00000000 ,   9.00000000 ,   5.03176129 ,   5.03176129 ,   48.0797827
0000001156,   0.00000000 ,   6.00000000 ,   9.00000000 ,   4.82864301 ,   4.82864301 ,   47.0311461
0000001157,   1.00000000 ,   6.00000000 ,   9.00000000 ,   4.82864301 ,   4.82864301 ,   47.0311459
0000001158,   2.00000000 ,   6.00000000 ,   9.00000000 ,   4.82864302 ,   4.82864302 ,   47.0311453
0000001159,   3.00000000 ,   6.00000000 ,   9.00000000 ,   4.82864304 ,   4.82864304 ,   47.0311448
0000001160,   4.00000000 ,   6.00000000 ,   9.00000000 ,   4.82864304 ,   4.82864304 ,   47.0311444
0000001161,   5.00000000 ,   6.00000000 ,   9.00000000 ,   4.82864305 ,   4.82864305 ,   47.0311443
0000001162,   6.00000000 ,   6.00000000 ,   9.00000000 ,   4.82864304 ,   4.82864304 ,   47.0311444
0000001163,   7.00000000 ,   6.00000000 ,   9.00000000 ,   4.82864304 ,   4.82864304 ,   47.0311448
0000001164,   8.00000000 ,   6.00000000 ,   9.00000000 ,   4.82864302 ,   4.82864302 ,   47.0311453
0000001165,   9.00000000 ,   6.00000000 ,   9.00000000 ,   4.82864301 ,   4.82864301 ,   47.0311459
0000001166,   10.0000000 ,   6.00000000 ,   9.00000000 ,   4.82864301 ,   4.82864301 ,   47.0311461
0000001167,   0.00000000 ,   7.00000000 ,   9.00000000 ,   4.62370896 ,   4.62370896 ,   46.1647575
0000001168,   1.00000000 ,   7.00000000 ,   9.00000000 ,   4.62370896 ,   4.62370896 ,   46.1647568
0000001169,   2.00000000 ,   7.00000000 ,   9.00000000 ,   4.62370898 ,   4.62370898 ,   46.1647554
0000001170,   3.00000000 ,   7.00000000 ,   9.00000000 ,   4.62370899 ,   4.62370899 ,   46.1647541
0000001171,   4.00000000 ,   7.00000000 ,   9.00000000 ,   4.62370900 ,   4.62370900 ,   46.1647532
0000001172,   5.00000000 ,   7.00000000 ,   9.00000000 ,   4.62370901 ,   4.62370901 ,   46.1647529
0000001173,   6.00000000 ,   7.00000000 ,   9.00000000 ,   4.62370900 ,   4.62370900 ,   46.1647532
0000001174,   7.00000000 ,   7.00000000 ,   9.00000000 ,   4.62370899 ,   4.62370899 ,   46.1647541
0000001175,   8.00000000 ,   7.00000000 ,   9.00000000 ,   4.62370898 ,   4.62370898 ,   46.1647554
0000001176,   9.00000000 ,   7.00000000 ,   9.00000000 ,   4.62370896 ,   4.62370896 ,   46.1647568
0000001177,   10.0000000 ,   7.00000000 ,   9.00000000 ,   4.62370896 ,   4.62370896 ,   46.1647575
0000001178,   0.00000000 ,   8.00000000 ,   9.00000000 ,   4.41721075 ,   4.41721075 ,   45.4506352
0000001179,   1.00000000 ,   8.00000000 ,   9.00000000 ,   4.41721076 ,   4.41721076 ,   45.4506336
0000001180,   2.00000000 ,   8.00000000 ,   9.00000000 ,   4.41721077 ,   4.41721077 ,   45.4506303
0000001181,   3.00000000 ,   8.00000000 ,   9.00000000 ,   4.41721079 ,   4.41721079 ,   45.4506273
0000001182,   4.00000000 ,   8.00000000 ,   9.00000000 ,   4.41721080 ,   4.41721080 ,   45.4506255
0000001183,   5.00000000 ,   8.00000000 ,   9.00000000 ,   4.41721080 ,   4.41721080 ,   45.4506249
0000001184,   6.00000000 ,   8.00000000 ,   9.00000000 ,   4.41721080 ,   4.41721080 ,   45.4506255
0000001185,   7.00000000 ,   8.00000000 ,   9.00000000 ,   4.41721079 ,   4.41721079 ,   45.4506273
0000001186,   8.00000000 ,   8.00000000 ,   9.00000000 ,   4.41721077 ,   4.41721077 ,   45.4506303
0000001187,   9.00000000 ,   8.00000000 ,   9.00000000 ,   4.41721076 ,   4.41721076 ,   45.4506336
0000001188,   10.0000000 ,   8.00000000 ,   9.00000000 ,   4.41721075 ,   4.41721075 ,   45.4506352
0000001189,   0.00000000 ,   9.00000000 ,   9.00000000 ,   4.20927826 ,   4.20927826 ,   44.8752355
0000001190,   1.00000000 ,   9.00000000 ,   9.00000000 ,   4.20927827 ,   4.20927827 ,   44.8752322
0000001191,   2.00000000 ,   9.00000000 ,   9.00000000 ,   4.20927828 ,   4.20927828 ,   44.8752259
0000001192,   3.00000000 ,   9.00000000 ,   9.00000000 ,   4.20927829 ,   4.20927829 ,   44.8752202
0000001193,   4.00000000 ,   9.00000000 ,   9.00000000 ,   4.20927830 ,   4.20927830 ,   44.8752168
0000001194,   5.00000000 ,   9.00000000 ,   9.00000000 ,   4.20927831 ,   4.20927831 ,   44.8752157
0000001195,   6.00000000 ,   9.00000000 ,   9.00000000 ,   4.20927830 ,   4.20927830 ,   44.8752168
0000001196,   7.00000000 ,   9.00000000 ,   9.00000000 ,   4.20927829 ,   4.20927829 ,   44.8752202
0000001197,   8.00000000 ,   9.00000000 ,   9.00000000 ,   4.20927828 ,   4.20927828 ,   44.8752259
0000001198,   9.00000000 ,   9.00000000 ,   9.00000000 ,   4.20927827 ,   4.20927827 ,   44.8752322
0000001199,   10.0000000 ,   9.00000000 ,   9.00000000 ,   4.20927826 ,   4.20927826 ,   44.8752355
0000001200,   0.00000000 ,   10.0000000 ,   9.00000000 ,   4.00000000 ,   4.00000000 ,   44.6523434
0000001201,   1.00000000 ,   10.0000000 ,   9.00000000 ,   4.00000000 ,   4.00000000 ,   44.6523391
0000001202,   2.00000000 ,   10.0000000 ,   9.00000000 ,   4.00000000 ,   4.00000000 ,   44.6523308
0000001203,   3.00000000 ,   10.0000000 ,   9.00000000 ,   4.00000000 ,   4.00000000 ,   44.6523235
0000001204,   4.00000000 ,   10.0000000 ,   9.00000000 ,   4.00000000 ,   4.00000000 ,   44.6523191
0000001205,   5.00000000 ,   10.0000000 ,   9.00000000 ,   4.00000000 ,   4.00000000 ,   44.6523177
0000001206,   6.00000000 ,   10.0000000 ,   9.00000000 ,   4.00000000 ,   4.00000000 ,   44.6523191
0000001207,   7.00000000 ,   10.0000000 ,   9.00000000 ,   4.00000000 ,   4.00000000 ,   44.6523235
0000001208,   8.00000000 ,   10.0000000 ,   9.00000000 ,   4.00000000 ,   4.00000000 ,   44.6523308
0000001209,   9.00000000 ,   10.0000000 ,   9.00000000 ,   4.00000000 ,   4.00000000 ,   44.6523391
0000001210,   10.0000000 ,   10.0000000 ,   9.00000000 ,   4.00000000 ,   4.00000000 ,   44.6523434
0000001211,   0.00000000 ,   0.00000000 ,   10.0000000 ,   6.00000000 ,   6.00000000 ,   30.0000000
0000001212,   1.00000000 ,   0.00000000 ,   10.0000000 ,   6.00000000 ,   6.00000000 ,   30.0000000
0000001213,   2.00000000 ,   0.00000000 ,   10.0000000 ,   6.00000000 ,   6.00000000 ,   30.0000000
0000001214,   3.00000000 ,   0.00000000 ,   10.0000000 ,   6.00000000 ,   6.00000000 ,   30.0000000
0000001215,   4.00000000 ,   0.00000000 ,   10.0000000 ,   6.00000000 ,   6.00000000 ,   30.0000000
0000001216,   5.00000000 ,   0.00000000 ,   10.0000000 ,   6.00000000 ,   6.00000000 ,   30.0000000
0000001217,   6.00000000 ,   0.00000000 ,   10.0000000 ,   6.00000000 ,   6.00000000 ,   30.0000000
0000001218,   7.00000000 ,   0.00000000 ,   10.0000000 ,   6.00000000 ,   6.00000000 ,   30.0000000
0000001219,   8.00000000 ,   0.00000000 ,   10.0000000 ,   6.00000000 ,   6.00000000 ,   30.0000000
0000001220,   9.00000000 ,   0.00000000 ,   10.0000000 ,   6.00000000 ,   6.00000000 ,   30.0000000
0000001221,   10.0000000 ,   0.00000000 ,   10.0000000 ,   6.00000000 ,   6.00000000 ,   30.0000000
0000001222,   0.00000000 ,   1.00000000 ,   10.0000000 ,   5.80554496 ,   5.80554496 ,   30.0000000
0000001223,   1.00000000 ,   1.00000000 ,   10.0000000 ,   5.80554496 ,   5.80554496 ,   30.0000000
0000001224,   2.00000000 ,   1.00000000 ,   10.0000000 ,   5.80554496 ,   5.80554496 ,   30.0000000
0000001225,   3.00000000 ,   1.00000000 ,   10.0000000 ,   5.80554496 ,   5.80554496 ,   30.0000000
0000001226,   4.00000000 ,   1.00000000 ,   10.0000000 ,   5.80554496 ,   5.80554496 ,   30.0000000
0000001227,   5.00000000 ,   1.00000000 ,   10.0000000 ,   5.80554496 ,   5.80554496 ,   30.0000000
0000001228,   6.00000000 ,   1.00000000 ,   10.0000000 ,   5.80554496 ,   5.80554496 ,   30.0000000
0000001229,   7.00000000 ,   1.00000000 ,   10.0000000 ,   5.80554496 ,   5.80554496 ,   30.0000000
0000001230,   8.00000000 ,   1.00000000 ,   10.0000000 ,   5.80554496 ,   5.80554496 ,   30.0000000
0000001231,   9.00000000 ,   1.00000000 ,   10.0000000 ,   5.80554496 ,   5.80554496 ,   30.0000000
0000001232,   10.0000000 ,   1.00000000 ,   10.0000000 ,   5.80554496 ,   5.80554496 ,   30.0000000
0000001233,   0.00000000 ,   2.00000000 ,   10.0000000 ,   5.61084195 ,   5.61084195 ,   30.0000000
0000001234,   1.00000000 ,   2.00000000 ,   10.0000000 ,   5.61084195 ,   5.61084195 ,   30.0000000
0000001235,   2.00000000 ,   2.00000000 ,   10.0000000 ,   5.61084195 ,   5.61084195 ,   30.0000000
0000001236,   3.00000000 ,   2.00000000 ,   10.0000000 ,   5.61084195 ,   5.61084195 ,   30.0000000
0000001237,   4.00000000 ,   2.00000000 ,   10.0000000 ,   5.61084195 ,   5.61084195 ,   30.0000000
0000001238,   5.00000000 ,   2.00000000 ,   10.0000000 ,   5.61084195 ,   5.61084195 ,   30.0000000
0000001239,   6.00000000 ,   2.00000000 ,   10.0000000 ,   5.61084195 ,   5.61084195 ,   30.0000000
0000001240,   7.00000000 ,   2.00000000 ,   10.0000000 ,   5.61084195 ,   5.61084195 ,   30.0000000
0000001241,   8.00000000 ,   2.00000000 ,   10.0000000 ,   5.61084195 ,   5.61084195 ,   30.0000000
0000001242,   9.00000000 ,   2.00000000 ,   10.0000000 ,   5.61084195 ,   5.61084195 ,   30.0000000
0000001243,   10.0000000 ,   2.00000000 ,   10.0000000 ,   5.61084195 ,   5.61084195 ,   30.0000000
0000001244,   0.00000000 ,   3.00000000 ,   10.0000000 ,   5.41455950 ,   5.41455950 ,   30.0000000
0000001245,   1.00000000 ,   3.00000000 ,   10.0000000 ,   5.41455950 ,   5.41455950 ,   30.0000000
0000001246,   2.00000000 ,   3.00000000 ,   10.0000000 ,   5.41455950 ,   5.41455950 ,   30.0000000
0000001247,   3.00000000 ,   3.00000000 ,   10.0000000 ,   5.41455950 ,   5.41455950 ,   30.0000000
0000001248,   4.00000000 ,   3.00000000 ,   10.0000000 ,   5.41455950 ,   5.41455950 ,   30.0000000
0000001249,   5.00000000 ,   3.00000000 ,   10.0000000 ,   5.41455950 ,   5.41455950 ,   30.0000000
0000001250,   6.00000000 ,   3.00000000 ,   10.0000000 ,   5.41455950 ,   5.41455950 ,   30.0000000
0000001251,   7.00000000 ,   3.00000000 ,   10.0000000 ,   5.41455950 ,   5.41455950 ,   30.0000000
0000001252,   8.00000000 ,   3.00000000 ,   10.0000000 ,   5.41455950 ,   5.41455950 ,   30.0000000
0000001253,   9.00000000 ,   3.00000000 ,   10.0000000 ,   5.41455950 ,   5.41455950 ,   30.0000000
0000001254,   10.0000000 ,   3.00000000 ,   10.0000000 ,   5.41455950 ,   5.41455950 ,   30.0000000
0000001255,   0.00000000 ,   4.00000000 ,   10.0000000 ,   5.21631000 ,   5.21631000 ,   30.0000000
0000001256,   1.00000000 ,   4.00000000 ,   10.0000000 ,   5.21631000 ,   5.21631000 ,   30.0000000
0000001257,   2.00000000 ,   4.00000000 ,   10.0000000 ,   5.21631000 ,   5.21631000 ,   30.0000000
0000001258,   3.00000000 ,   4.00000000 ,   10.0000000 ,   5.21631000 ,   5.21631000 ,   30.0000000
0000001259,   4.00000000 ,   4.00000000 ,   10.0000000 ,   5.21631001 ,   5.21631001 ,   30.0000000
0000001260,   5.00000000 ,   4.00000000 ,   10.0000000 ,   5.21631001 ,   5.21631001 ,   30.0000000
0000001261,   6.00000000 ,   4.00000000 ,   10.0000000 ,   5.21631001 ,   5.21631001 ,   30.0000000
0000001262,   7.00000000 ,   4.00000000 ,   10.0000000 ,   5.21631000 ,   5.21631000 ,   30.0000000
0000001263,   8.00000000 ,   4.00000000 ,   10.0000000 ,   5.21631000 ,   5.21631000 ,   30.0000000
0000001264,   9.00000000 ,   4.00000000 ,   10.0000000 ,   5.21631000 ,   5.21631000 ,   30.0000000
0000001265,   10.0000000 ,   4.00000000 ,   10.0000000 ,   5.21631000 ,   5.21631000 ,   30.0000000
0000001266,   0.00000000 ,   5.00000000 ,   10.0000000 ,   5.01613802 ,   5.01613802 ,   30.0000000
0000001267,   1.00000000 ,   5.00000000 ,   10.0000000 ,   5.01613802 ,   5.01613802 ,   30.0000000
0000001268,   2.00000000 ,   5.00000000 ,   10.0000000 ,   5.01613803 ,   5.01613803 ,   30.0000000
0000001269,   3.00000000 ,   5.00000000 ,   10.0000000 ,   5.01613803 ,   5.01613803 ,   30.0000000
0000001270,   4.00000000 ,   5.00000000 ,   10.0000000 ,   5.01613803 ,   5.01613803 ,   30.0000000
0000001271,   5.00000000 ,   5.00000000 ,   10.0000000 ,   5.01613803 ,   5.01613803 ,   30.0000000
0000001272,   6.00000000 ,   5.00000000 ,   10.0000000 ,   5.01613803 ,   5.01613803 ,   30.0000000
0000001273,   7.00000000 ,   5.00000000 ,   10.0000000 ,   5.01613803 ,   5.01613803 ,   30.0000000
0000001274,   8.00000000 ,   5.00000000 ,   10.0000000 ,   5.01613803 ,   5.01613803 ,   30.0000000
0000001275,   9.00000000 ,   5.00000000 ,   10.0000000 ,   5.01613802 ,   5.01613802 ,   30.0000000
0000001276,   10.0000000 ,   5.00000000 ,   10.0000000 ,   5.01613802 ,   5.01613802 ,   30.0000000
0000001277,   0.00000000 ,   6.00000000 ,   10.0000000 ,   4.81429678 ,   4.81429678 ,   30.0000000
0000001278,   1.00000000 ,   6.00000000 ,   10.0000000 ,   4.81429678 ,   4.81429678 ,   30.0000000
0000001279,   2.00000000 ,   6.00000000 ,   10.0000000 ,   4.81429678 ,   4.81429678 ,   30.0000000
0000001280,   3.00000000 ,   6.00000000 ,   10.0000000 ,   4.81429679 ,   4.81429679 ,   30.0000000
0000001281,   4.00000000 ,   6.00000000 ,   10.0000000 ,   4.81429679 ,   4.81429679 ,   30.0000000
0000001282,   5.00000000 ,   6.00000000 ,   10.0000000 ,   4.81429679 ,   4.81429679 ,   30.0000000
0000001283,   6.00000000 ,   6.00000000 ,   10.0000000 ,   4.81429679 ,   4.81429679 ,   30.0000000
0000001284,   7.00000000 ,   6.00000000 ,   10.0000000 ,   4.81429679 ,   4.81429679 ,   30.0000000
0000001285,   8.00000000 ,   6.00000000 ,   10.0000000 ,   4.81429678 ,   4.81429678 ,   30.0000000
0000001286,   9.00000000 ,   6.00000000 ,   10.0000000 ,   4.81429678 ,   4.81429678 ,   30.0000000
0000001287,   10.0000000 ,   6.00000000 ,   10.0000000 ,   4.81429678 ,   4.81429678 ,   30.0000000
0000001288,   0.00000000 ,   7.00000000 ,   10.0000000 ,   4.61116659 ,   4.61116659 ,   30.0000000
0000001289,   1.00000000 ,   7.00000000 ,   10.0000000 ,   4.61116659 ,   4.61116659 ,   30.0000000
0000001290,   2.00000000 ,   7.00000000 ,   10.0000000 ,   4.61116660 ,   4.61116660 ,   30.0000000
0000001291,   3.00000000 ,   7.00000000 ,   10.0000000 ,   4.61116660 ,   4.61116660 ,   30.0000000
0000001292,   4.00000000 ,   7.00000000 ,   10.0000000 ,   4.61116660 ,   4.61116660 ,   30.0000000
0000001293,   5.00000000 ,   7.00000000 ,   10.0000000 ,   4.61116661 ,   4.61116661 ,   30.0000000
0000001294,   6.00000000 ,   7.00000000 ,   10.0000000 ,   4.61116660 ,   4.61116660 ,   30.0000000
0000001295,   7.00000000 ,   7.00000000 ,   10.0000000 ,   4.61116660 ,   4.61116660 ,   30.0000000
0000001296,   8.00000000 ,   7.00000000 ,   10.0000000 ,   4.61116660 ,   4.61116660 ,   30.0000000
0000001297,   9.00000000 ,   7.00000000 ,   10.0000000 ,   4.61116659 ,   4.61116659 ,   30.0000000
0000001298,   10.0000000 ,   7.00000000 ,   10.0000000 ,   4.61116659 ,   4.61116659 ,   30.0000000
0000001299,   0.00000000 ,   8.00000000 ,   10.0000000 ,   4.40725539 ,   4.40725539 ,   30.0000000
0000001300,   1.00000000 ,   8.00000000 ,   10.0000000 ,   4.40725539 ,   4.40725539 ,   30.0000000
0000001301,   2.00000000 ,   8.00000000 ,   10.0000000 ,   4.40725539 ,   4.40725539 ,   30.0000000
0000001302,   3.00000000 ,   8.00000000 ,   10.0000000 ,   4.40725540 ,   4.40725540 ,   30.0000000
0000001303,   4.00000000 ,   8.00000000 ,   10.0000000 ,   4.40725540 ,   4.40725540 ,   30.0000000
0000001304,   5.00000000 ,   8.00000000 ,   10.0000000 ,   4.40725540 ,   4.40725540 ,   30.0000000
0000001305,   6.00000000 ,   8.00000000 ,   10.0000000 ,   4.40725540 ,   4.40725540 ,   30.0000000
0000001306,   7.00000000 ,   8.00000000 ,   10.0000000 ,   4.40725540 ,   4.40725540 ,   30.0000000
0000001307,   8.00000000 ,   8.00000000 ,   10.0000000 ,   4.40725539 ,   4.40725539 ,   30.0000000
0000001308,   9.00000000 ,   8.00000000 ,   10.0000000 ,   4.40725539 ,   4.40725539 ,   30.0000000
0000001309,   10.0000000 ,   8.00000000 ,   10.0000000 ,   4.40725539 ,   4.40725539 ,   30.0000000
0000001310,   0.00000000 ,   9.00000000 ,   10.0000000 ,   4.20326591 ,   4.20326591 ,   30.0000000
0000001311,   1.00000000 ,   9.00000000 ,   10.0000000 ,   4.20326591 ,   4.20326591 ,   30.0000000
0000001312,   2.00000000 ,   9.00000000 ,   10.0000000 ,   4.20326591 ,   4.20326591 ,   30.0000000
0000001313,   3.00000000 ,   9.00000000 ,   10.0000000 ,   4.20326592 ,   4.20326592 ,   30.0000000
0000001314,   4.00000000 ,   9.00000000 ,   10.0000000 ,   4.20326592 ,   4.20326592 ,   30.0000000
0000001315,   5.00000000 ,   9.00000000 ,   10.0000000 ,   4.20326592 ,   4.20326592 ,   30.0000000
0000001316,   6.00000000 ,   9.00000000 ,   10.0000000 ,   4.20326592 ,   4.20326592 ,   30.0000000
0000001317,   7.00000000 ,   9.00000000 ,   10.0000000 ,   4.20326592 ,   4.20326592 ,   30.0000000
0000001318,   8.00000000 ,   9.00000000 ,   10.0000000 ,   4.20326591 ,   4.20326591 ,   30.0000000
0000001319,   9.00000000 ,   9.00000000 ,   10.0000000 ,   4.20326591 ,   4.20326591 ,   30.0000000
0000001320,   10.0000000 ,   9.00000000 ,   10.0000000 ,   4.20326591 ,   4.20326591 ,   30.0000000
0000001321,   0.00000000 ,   10.0000000 ,   10.0000000 ,   4.00000000 ,   4.00000000 ,   30.0000000
0000001322,   1.00000000 ,   10.0000000 ,   10.0000000 ,   4.00000000 ,   4.00000000 ,   30.0000000
0000001323,   2.00000000 ,   10.0000000 ,   10.0000000 ,   4.00000000 ,   4.00000000 ,   30.0000000
0000001324,   3.00000000 ,   10.0000000 ,   10.0000000 ,   4.00000000 ,   4.00000000 ,   30.0000000
0000001325,   4.00000000 ,   10.0000000 ,   10.0000000 ,   4.00000000 ,   4.00000000 ,   30.0000000
0000001326,   5.00000000 ,   10.0000000 ,   10.0000000 ,   4.00000000 ,   4.00000000 ,   30.0000000
0000001327,   6.00000000 ,   10.0000000 ,   10.0000000 ,   4.00000000 ,   4.00000000 ,   30.0000000
0000001328,   7.00000000 ,   10.0000000 ,   10.0000000 ,   4.00000000 ,   4.00000000 ,   30.0000000
0000001329,   8.00000000 ,   10.0000000 ,   10.0000000 ,   4.00000000 ,   4.00000000 ,   30.0000000
0000001330,   9.00000000 ,   10.0000000 ,   10.0000000 ,   4.00000000 ,   4.00000000 ,   30.0000000
0000001331,   10.0000000 ,   10.0000000 ,   10.0000000 ,   4.00000000 ,   4.00000000 ,   30.0000000
